#Rx
# X(m), Y(m), Z(m), Distance(m), Power (dBm) Phase (deg)
1 -28.0028 2.95289 1.4 25.0488 -91.849 -92.224
2 -27.0028 2.95289 1.4 24.2058 -103.356 42.2749
3 -26.0028 2.95289 1.4 23.3753 -87.0966 -42.662
4 -25.0028 2.95289 1.4 22.5584 -95.3866 -115.652
5 -24.0028 2.95289 1.4 21.7569 -91.8924 52.8471
6 -23.0028 2.95289 1.4 20.9725 -105.363 136.858
7 -22.0028 2.95289 1.4 20.2071 -91.5511 -116.17
8 -21.0028 2.95289 1.4 19.4629 -95.8855 -32.216
9 -20.0028 2.95289 1.4 18.7427 -97.1913 102.485
10 -19.0028 2.95289 1.4 18.049 -80.5345 172.069
11 -18.0028 2.95289 1.4 17.3853 -85.3432 -22.1029
12 -17.0028 2.95289 1.4 16.755 -69.2935 104.134
13 -16.0028 2.95289 1.4 16.162 -71.3358 11.6677
14 -15.0028 2.95289 1.4 15.6106 -74.2132 142.354
15 -14.0028 2.95289 1.4 15.1053 -72.6658 -147.042
16 -13.0028 2.95289 1.4 14.651 -70.9483 -72.4552
17 -12.0028 2.95289 1.4 14.2525 -86.4472 123.957
18 -11.0028 2.95289 1.4 13.9145 -67.8367 118.003
19 -10.0028 2.95289 1.4 13.6416 -63.453 12.6209
20 -9.00282 2.95289 1.4 13.4378 -59.3191 -119.597
21 -8.00282 2.95289 1.4 13.3062 -56.3328 131.304
22 -7.00282 2.95289 1.4 13.249 -51.1442 19.8427
23 -6.00282 2.95289 1.4 13.2671 -47.605 -15.3685
24 -5.00282 2.95289 1.4 13.3603 -52.8154 -123.545
25 -4.00282 2.95289 1.4 13.527 -64.8326 48.3331
26 -3.00282 2.95289 1.4 13.7644 -80.1065 108.136
27 -2.00282 2.95289 1.4 14.0691 -56.4765 74.4817
28 -1.00282 2.95289 1.4 14.4368 -63.1926 176.179
29 -0.00282 2.95289 1.4 14.8628 -75.7784 114.673
30 0.99718 2.95289 1.4 15.3422 -71.4681 16.6806
31 1.99718 2.95289 1.4 15.8702 -71.9068 -165.159
32 2.99718 2.95289 1.4 16.4421 -63.584 61.3951
33 3.99718 2.95289 1.4 17.0536 -63.6694 -49.2227
34 4.99718 2.95289 1.4 17.7004 -63.5049 127.691
35 5.99718 2.95289 1.4 18.3789 -65.2432 -128.109
36 6.99718 2.95289 1.4 19.0858 -66.9433 -59.7789
37 7.99718 2.95289 1.4 19.8178 -67.4603 -83.6897
38 8.99718 2.95289 1.4 20.5725 -63.8861 -166.22
39 9.99718 2.95289 1.4 21.3473 -63.1422 54.8622
40 10.9972 2.95289 1.4 22.1402 -67.2229 -156.675
41 11.9972 2.95289 1.4 22.9493 -68.5148 -2.83759
42 12.9972 2.95289 1.4 23.7729 -68.9968 70.2645
43 13.9972 2.95289 1.4 24.6096 -66.9405 162.229
44 14.9972 2.95289 1.4 25.458 -72.4639 135.204
45 15.9972 2.95289 1.4 26.3172 -65.8594 65.8848
46 16.9972 2.95289 1.4 27.1859 -78.7944 -62.0425
47 17.9972 2.95289 1.4 28.0634 -67.0486 160.845
48 18.9972 2.95289 1.4 28.9488 -67.7584 -6.37571
49 19.9972 2.95289 1.4 29.8415 -79.3659 -175.192
50 20.9972 2.95289 1.4 30.7408 -76.7598 -9.6865
51 21.9972 2.95289 1.4 31.6461 -80.2362 -111.885
52 22.9972 2.95289 1.4 32.557 -83.417 60.6032
53 23.9972 2.95289 1.4 33.473 -75.3798 -131.341
54 24.9972 2.95289 1.4 34.3936 -79.8003 -31.3243
55 25.9972 2.95289 1.4 35.3186 -76.215 104.978
56 26.9972 2.95289 1.4 36.2475 -78.9845 -131.449
57 27.9972 2.95289 1.4 37.1801 -74.34 100.526
58 28.9972 2.95289 1.4 38.1162 -80.0711 -169.348
59 29.9972 2.95289 1.4 39.0554 -75.58 -14.2733
60 -28.0028 3.95289 1.4 24.5346 -91.7119 -26.0242
61 -27.0028 3.95289 1.4 23.6734 -102.882 92.9944
62 -26.0028 3.95289 1.4 22.8234 -87.7986 51.9907
63 -25.0028 3.95289 1.4 21.9861 -94.117 -129.201
64 -24.0028 3.95289 1.4 21.163 -96.4049 133.504
65 -23.0028 3.95289 1.4 20.3556 -86.7758 -78.4916
66 -22.0028 3.95289 1.4 19.5661 -101.852 110.311
67 -21.0028 3.95289 1.4 18.7966 -93.66 -159.191
68 -20.0028 3.95289 1.4 18.0498 -97.2646 -91.0333
69 -19.0028 3.95289 1.4 17.3284 -79.7855 -164.949
70 -18.0028 3.95289 1.4 16.636 -83.0854 -22.9642
71 -17.0028 3.95289 1.4 15.9761 -62.3653 -168.191
72 -16.0028 3.95289 1.4 15.3531 -67.9054 -136.4
73 -15.0028 3.95289 1.4 14.7715 -80.626 -77.4472
74 -14.0028 3.95289 1.4 14.2365 -73.4199 -77.6115
75 -13.0028 3.95289 1.4 13.7535 -70.1842 -171.331
76 -12.0028 3.95289 1.4 13.3282 -61.8478 -71.9843
77 -11.0028 3.95289 1.4 12.9661 -67.3096 28.703
78 -10.0028 3.95289 1.4 12.6729 -59.0124 78.1587
79 -9.00282 3.95289 1.4 12.4532 -76.854 -20.8922
80 -8.00282 3.95289 1.4 12.3111 -66.0903 -172.149
81 -7.00282 3.95289 1.4 12.2492 -55.5453 148.872
82 -6.00282 3.95289 1.4 12.2688 -61.7464 -2.49462
83 -5.00282 3.95289 1.4 12.3695 -53.3736 -148.473
84 -4.00282 3.95289 1.4 12.5493 -53.8672 150.563
85 -3.00282 3.95289 1.4 12.8049 -62.7686 29.9888
86 -2.00282 3.95289 1.4 13.1319 -54.9475 -3.50093
87 -1.00282 3.95289 1.4 13.5251 -60.1629 -147.154
88 -0.00282 3.95289 1.4 13.9789 -69.5098 -70.2437
89 0.99718 3.95289 1.4 14.4876 -70.4112 125.668
90 1.99718 3.95289 1.4 15.0456 -57.4874 -123.643
91 2.99718 3.95289 1.4 15.6477 -68.8293 145.2
92 3.99718 3.95289 1.4 16.289 -64.1197 35.9761
93 4.99718 3.95289 1.4 16.965 -62.6226 117.285
94 5.99718 3.95289 1.4 17.6718 -64.4342 110.792
95 6.99718 3.95289 1.4 18.4058 -63.1923 99.3624
96 7.99718 3.95289 1.4 19.1639 -74.5644 44.1058
97 8.99718 3.95289 1.4 19.9433 -60.4005 -124.11
98 9.99718 3.95289 1.4 20.7416 -64.131 16.3223
99 10.9972 3.95289 1.4 21.5568 -64.9432 170.875
100 11.9972 3.95289 1.4 22.387 -65.3629 -122.209
101 12.9972 3.95289 1.4 23.2305 -64.707 -117.372
102 13.9972 3.95289 1.4 24.0861 -80.0978 145.449
103 14.9972 3.95289 1.4 24.9523 -71.1299 47.2059
104 15.9972 3.95289 1.4 25.8283 -83.5421 92.2455
105 16.9972 3.95289 1.4 26.7129 -66.2169 174.938
106 17.9972 3.95289 1.4 27.6055 -73.8086 81.2406
107 18.9972 3.95289 1.4 28.5051 -74.2386 -59.4489
108 19.9972 3.95289 1.4 29.4113 -71.8207 -166.03
109 20.9972 3.95289 1.4 30.3233 -69.8827 52.8208
110 21.9972 3.95289 1.4 31.2407 -71.4118 -167.274
111 22.9972 3.95289 1.4 32.1631 -81.7457 129.538
112 23.9972 3.95289 1.4 33.09 -73.2014 -164.666
113 24.9972 3.95289 1.4 34.021 -79.9406 -19.1582
114 25.9972 3.95289 1.4 34.9558 -77.4149 115.577
115 26.9972 3.95289 1.4 35.8941 -87.8285 -177.945
116 27.9972 3.95289 1.4 36.8357 -78.226 54.5083
117 28.9972 3.95289 1.4 37.7803 -77.3963 -176.91
118 29.9972 3.95289 1.4 38.7276 -95.8657 -162.458
119 -28.0028 4.95289 1.4 24.0511 -90.8151 -38.6372
120 -27.0028 4.95289 1.4 23.1719 -86.9818 -53.4881
121 -26.0028 4.95289 1.4 22.3028 -85.7289 77.4002
122 -25.0028 4.95289 1.4 21.4452 -95.637 -154.37
123 -24.0028 4.95289 1.4 20.6004 -97.412 -115.864
124 -23.0028 4.95289 1.4 19.7702 -95.6935 -165.554
125 -22.0028 4.95289 1.4 18.9563 -92.0818 -81.5149
126 -21.0028 4.95289 1.4 18.161 -83.8292 127.737
127 -20.0028 4.95289 1.4 17.3868 -83.7456 -96.7988
128 -19.0028 4.95289 1.4 16.6368 -87.7093 -50.8669
129 -18.0028 4.95289 1.4 15.9142 -82.8172 90.7482
130 -17.0028 4.95289 1.4 15.2231 -67.0802 -119.662
131 -16.0028 4.95289 1.4 14.5679 -64.0692 34.6918
132 -15.0028 4.95289 1.4 13.9537 -68.5936 72.7671
133 -14.0028 4.95289 1.4 13.386 -73.7515 -90.257
134 -13.0028 4.95289 1.4 12.8711 -67.4432 166.39
135 -12.0028 4.95289 1.4 12.4156 -63.1028 135.691
136 -11.0028 4.95289 1.4 12.0261 -114.81 67.1131
137 -10.0028 4.95289 1.4 11.7093 -73.6498 26.9944
138 -9.00282 4.95289 1.4 11.4712 -61.4144 -44.8505
139 -8.00282 4.95289 1.4 11.3168 -58.4927 -49.3693
140 -7.00282 4.95289 1.4 11.2495 -53.6174 -130.183
141 -6.00282 4.95289 1.4 11.2708 -48.7656 119.821
142 -5.00282 4.95289 1.4 11.3803 -54.4048 92.5072
143 -4.00282 4.95289 1.4 11.5755 -69.7775 36.6935
144 -3.00282 4.95289 1.4 11.8521 -54.6897 176.229
145 -2.00282 4.95289 1.4 12.2047 -65.8247 176.763
146 -1.00282 4.95289 1.4 12.6267 -55.2961 -178.672
147 -0.00282 4.95289 1.4 13.1117 -78.3012 82.6144
148 0.99718 4.95289 1.4 13.6527 -60.9076 50.2501
149 1.99718 4.95289 1.4 14.2435 -64.5314 47.4065
150 2.99718 4.95289 1.4 14.8781 -66.1397 102.572
151 3.99718 4.95289 1.4 15.5512 -66.7668 -20.6778
152 4.99718 4.95289 1.4 16.2579 -61.4227 3.21025
153 5.99718 4.95289 1.4 16.9941 -63.3964 -33.4685
154 6.99718 4.95289 1.4 17.7561 -65.3259 -161.698
155 7.99718 4.95289 1.4 18.5408 -82.6884 -4.74436
156 8.99718 4.95289 1.4 19.3453 -66.0239 -139.043
157 9.99718 4.95289 1.4 20.1674 -62.8667 -65.6451
158 10.9972 4.95289 1.4 21.0048 -68.5311 -12.0216
159 11.9972 4.95289 1.4 21.856 -69.8107 16.1785
160 12.9972 4.95289 1.4 22.7193 -68.1142 -139.167
161 13.9972 4.95289 1.4 23.5933 -70.7314 -139.653
162 14.9972 4.95289 1.4 24.4771 -77.792 -164.764
163 15.9972 4.95289 1.4 25.3694 -76.1233 24.6718
164 16.9972 4.95289 1.4 26.2695 -73.831 35.66
165 17.9972 4.95289 1.4 27.1766 -74.5078 -69.6514
166 18.9972 4.95289 1.4 28.09 -73.1213 -130.948
167 19.9972 4.95289 1.4 29.0091 -77.3391 75.2454
168 20.9972 4.95289 1.4 29.9334 -71.2303 -20.8532
169 21.9972 4.95289 1.4 30.8625 -72.4038 168.331
170 22.9972 4.95289 1.4 31.7958 -67.7231 -35.742
171 23.9972 4.95289 1.4 32.7331 -78.4668 -167.805
172 24.9972 4.95289 1.4 33.6739 -68.5181 174.087
173 25.9972 4.95289 1.4 34.6181 -70.7656 -163.442
174 26.9972 4.95289 1.4 35.5654 -77.1326 -162.313
175 27.9972 4.95289 1.4 36.5154 -79.8776 19.1956
176 28.9972 4.95289 1.4 37.4681 -79.7363 -120.595
177 29.9972 4.95289 1.4 38.4231 -77.7181 -56.4518
178 -28.0028 5.95289 1.4 23.6001 -89.8359 106.408
179 -27.0028 5.95289 1.4 22.7034 -87.3024 -85.1098
180 -26.0028 5.95289 1.4 21.8157 -85.0262 60.1259
181 -25.0028 5.95289 1.4 20.9381 -90.3781 18.8855
182 -24.0028 5.95289 1.4 20.072 -100.949 58.8772
183 -23.0028 5.95289 1.4 19.2189 -99.2346 73.2509
184 -22.0028 5.95289 1.4 18.3806 -80.1829 -0.460139
185 -21.0028 5.95289 1.4 17.5593 -81.5907 -120.773
186 -20.0028 5.95289 1.4 16.7573 -76.7886 -143.984
187 -19.0028 5.95289 1.4 15.9778 -78.4113 -103.919
188 -18.0028 5.95289 1.4 15.224 -80.4545 -122.523
189 -17.0028 5.95289 1.4 14.5 -71.0339 -93.8565
190 -16.0028 5.95289 1.4 13.8105 -69.5069 138.376
191 -15.0028 5.95289 1.4 13.161 -65.2426 -129.356
192 -14.0028 5.95289 1.4 12.5576 -76.7123 170.65
193 -13.0028 5.95289 1.4 12.0072 -61.9118 -68.9904
194 -12.0028 5.95289 1.4 11.5176 -69.8214 -59.5299
195 -11.0028 5.95289 1.4 11.0966 -73.066 73.8869
196 -10.0028 5.95289 1.4 10.7525 -66.0416 110.456
197 -9.00282 5.95289 1.4 10.4927 -65.9471 150.364
198 -8.00282 5.95289 1.4 10.3236 -57.2983 12.2882
199 -7.00282 5.95289 1.4 10.2498 -61.0324 -162.57
200 -6.00282 5.95289 1.4 10.2732 -52.851 -120.246
201 -5.00282 5.95289 1.4 10.3932 -52.4781 -34.6946
202 -4.00282 5.95289 1.4 10.6066 -62.0421 -27.6789
203 -3.00282 5.95289 1.4 10.9078 -58.531 -101.643
204 -2.00282 5.95289 1.4 11.2899 -69.2795 1.42205
205 -1.00282 5.95289 1.4 11.7449 -62.4391 177.886
206 -0.00282 5.95289 1.4 12.2647 -65.4558 151.482
207 0.99718 5.95289 1.4 12.8415 -61.1209 -98.0614
208 1.99718 5.95289 1.4 13.4679 -67.2444 -25.6929
209 2.99718 5.95289 1.4 14.1374 -67.4379 93.6041
210 3.99718 5.95289 1.4 14.844 -62.8467 -135.766
211 4.99718 5.95289 1.4 15.5829 -60.6857 162.035
212 5.99718 5.95289 1.4 16.3495 -71.8709 92.0802
213 6.99718 5.95289 1.4 17.1402 -71.7952 -152.832
214 7.99718 5.95289 1.4 17.9518 -70.13 -32.5561
215 8.99718 5.95289 1.4 18.7816 -63.7451 73.5013
216 9.99718 5.95289 1.4 19.6273 -66.8617 51.3395
217 10.9972 5.95289 1.4 20.4868 -66.3919 8.71539
218 11.9972 5.95289 1.4 21.3586 -70.3718 6.07643
219 12.9972 5.95289 1.4 22.2412 -83.3173 154.131
220 13.9972 5.95289 1.4 23.1334 -73.4016 -28.2094
221 14.9972 5.95289 1.4 24.034 -75.7859 -139.579
222 15.9972 5.95289 1.4 24.9422 -85.0608 126.979
223 16.9972 5.95289 1.4 25.8572 -96.0894 -87.3272
224 17.9972 5.95289 1.4 26.7783 -83.6133 175.665
225 18.9972 5.95289 1.4 27.7048 -71.3017 74.4026
226 19.9972 5.95289 1.4 28.6363 -73.4248 -29.8186
227 20.9972 5.95289 1.4 29.5722 -72.3757 -89.7341
228 21.9972 5.95289 1.4 30.5123 -70.6962 133.018
229 22.9972 5.95289 1.4 31.456 -74.011 -15.8992
230 23.9972 5.95289 1.4 32.4031 -69.1421 169.838
231 24.9972 5.95289 1.4 33.3533 -71.3842 7.01448
232 25.9972 5.95289 1.4 34.3063 -85.2468 -11.1336
233 26.9972 5.95289 1.4 35.2619 -92.4892 63.5109
234 27.9972 5.95289 1.4 36.2199 -72.2349 -74.2923
235 28.9972 5.95289 1.4 37.1801 -88.1161 103.538
236 29.9972 5.95289 1.4 38.1424 -75.9844 -61.6285
237 -28.0028 6.95289 1.4 23.1834 -75.9602 91.3045
238 -27.0028 6.95289 1.4 22.2699 -85.7944 -173.12
239 -26.0028 6.95289 1.4 21.3642 -85.7396 111.859
240 -25.0028 6.95289 1.4 20.4673 -104.805 110.418
241 -24.0028 6.95289 1.4 19.5804 -97.6633 65.8539
242 -23.0028 6.95289 1.4 18.7049 -83.7042 -130.553
243 -22.0028 6.95289 1.4 17.8425 -88.8177 134.49
244 -21.0028 6.95289 1.4 16.9951 -85.7066 -73.4959
245 -20.0028 6.95289 1.4 16.1653 -77.498 -46.2535
246 -19.0028 6.95289 1.4 15.3557 -84.5324 73.3019
247 -18.0028 6.95289 1.4 14.5697 -75.7318 -90.56
248 -17.0028 6.95289 1.4 13.8115 -66.064 -152.837
249 -16.0028 6.95289 1.4 13.0858 -73.2077 178.104
250 -15.0028 6.95289 1.4 12.3983 -64.5445 -15.7597
251 -14.0028 6.95289 1.4 11.7558 -68.0865 36.018
252 -13.0028 6.95289 1.4 11.166 -68.0613 152.653
253 -12.0028 6.95289 1.4 10.6377 -70.7737 -15.2864
254 -11.0028 6.95289 1.4 10.1805 -72.9341 -24.7069
255 -10.0028 6.95289 1.4 9.80421 -69.1888 176.875
256 -9.00282 6.95289 1.4 9.51857 -68.3625 -15.5895
257 -8.00282 6.95289 1.4 9.33188 -59.9621 40.3546
258 -7.00282 6.95289 1.4 9.25012 -56.0539 -34.215
259 -6.00282 6.95289 1.4 9.27606 -65.507 -102.201
260 -5.00282 6.95289 1.4 9.40883 -63.1631 16.8603
261 -4.00282 6.95289 1.4 9.644 -75.1179 -165.93
262 -3.00282 6.95289 1.4 9.97434 -65.486 -143.31
263 -2.00282 6.95289 1.4 10.3908 -66.0607 -129.582
264 -1.00282 6.95289 1.4 10.8834 -50.82 -97.6312
265 -0.00282 6.95289 1.4 11.4424 -61.4478 20.7912
266 0.99718 6.95289 1.4 12.0586 -61.4631 -143.665
267 1.99718 6.95289 1.4 12.7236 -63.2202 1.00462
268 2.99718 6.95289 1.4 13.4303 -64.0441 49.7496
269 3.99718 6.95289 1.4 14.1722 -68.7341 19.0345
270 4.99718 6.95289 1.4 14.9443 -62.7565 -131.419
271 5.99718 6.95289 1.4 15.7421 -66.3294 30.1467
272 6.99718 6.95289 1.4 16.5618 -77.3685 91.061
273 7.99718 6.95289 1.4 17.4004 -77.4661 -5.26544
274 8.99718 6.95289 1.4 18.2553 -62.2368 129.106
275 9.99718 6.95289 1.4 19.1242 -91.9884 42.3084
276 10.9972 6.95289 1.4 20.0054 -63.2432 -66.9056
277 11.9972 6.95289 1.4 20.8973 -67.1208 -81.2716
278 12.9972 6.95289 1.4 21.7986 -73.2617 91.6418
279 13.9972 6.95289 1.4 22.7081 -78.9743 16.7574
280 14.9972 6.95289 1.4 23.625 -74.5614 166.69
281 15.9972 6.95289 1.4 24.5483 -75.7283 -29.9708
282 16.9972 6.95289 1.4 25.4775 -92.6234 124.482
283 17.9972 6.95289 1.4 26.4118 -78.4183 -107.019
284 18.9972 6.95289 1.4 27.3507 -80.6917 -44.1353
285 19.9972 6.95289 1.4 28.2939 -71.1803 -97.9131
286 20.9972 6.95289 1.4 29.2408 -74.6848 117.463
287 21.9972 6.95289 1.4 30.1911 -71.2098 61.5224
288 22.9972 6.95289 1.4 31.1446 -71.8278 -41.9803
289 23.9972 6.95289 1.4 32.1009 -69.3556 146.583
290 24.9972 6.95289 1.4 33.0598 -84.213 -162.754
291 25.9972 6.95289 1.4 34.021 -87.6171 73.7225
292 26.9972 6.95289 1.4 34.9844 -78.552 31.9785
293 27.9972 6.95289 1.4 35.9498 -78.0388 134.722
294 28.9972 6.95289 1.4 36.9171 -71.581 118.103
295 29.9972 6.95289 1.4 37.886 -70.6742 14.3544
296 -28.0028 7.95289 1.4 22.803 -91.7468 163.914
297 -27.0028 7.95289 1.4 21.8737 -74.8162 -98.435
298 -26.0028 7.95289 1.4 20.9508 -81.6291 159.698
299 -25.0028 7.95289 1.4 20.0354 -99.4703 -139.799
300 -24.0028 7.95289 1.4 19.1285 -84.9455 62.137
301 -23.0028 7.95289 1.4 18.2313 -90.2692 -75.3472
302 -22.0028 7.95289 1.4 17.3453 -85.4798 116.422
303 -21.0028 7.95289 1.4 16.4725 -90.3014 -58.9767
304 -20.0028 7.95289 1.4 15.6148 -75.4951 -62.6325
305 -19.0028 7.95289 1.4 14.7751 -70.7233 83.9605
306 -18.0028 7.95289 1.4 13.9565 -82.1964 -178.785
307 -17.0028 7.95289 1.4 13.163 -68.3118 -106.137
308 -16.0028 7.95289 1.4 12.3994 -60.9541 3.16536
309 -15.0028 7.95289 1.4 11.6716 -68.8679 12.7978
310 -14.0028 7.95289 1.4 10.9867 -65.1275 174.697
311 -13.0028 7.95289 1.4 10.3531 -57.0297 109.833
312 -12.0028 7.95289 1.4 9.78101 -71.8002 21.7584
313 -11.0028 7.95289 1.4 9.28164 -62.9162 -133.146
314 -10.0028 7.95289 1.4 8.86733 -76.8736 -121.676
315 -9.00282 7.95289 1.4 8.55045 -68.3745 -55.4467
316 -8.00282 7.95289 1.4 8.34212 -57.2326 147.244
317 -7.00282 7.95289 1.4 8.25056 -50.0297 20.8955
318 -6.00282 7.95289 1.4 8.27964 -67.9726 -105.295
319 -5.00282 7.95289 1.4 8.42811 -50.8464 49.2463
320 -4.00282 7.95289 1.4 8.68987 -66.1033 164.398
321 -3.00282 7.95289 1.4 9.05508 -62.7459 -31.8865
322 -2.00282 7.95289 1.4 9.51185 -55.1677 -44.3589
323 -1.00282 7.95289 1.4 10.0477 -58.9021 174.563
324 -0.00282 7.95289 1.4 10.6507 -62.4752 40.5906
325 0.99718 7.95289 1.4 11.3101 -58.3816 -156.119
326 1.99718 7.95289 1.4 12.0166 -57.997 -126.315
327 2.99718 7.95289 1.4 12.7624 -59.3891 -124.941
328 3.99718 7.95289 1.4 13.541 -65.0887 62.3002
329 4.99718 7.95289 1.4 14.3471 -66.447 -118.413
330 5.99718 7.95289 1.4 15.1763 -70.1289 -63.4321
331 6.99718 7.95289 1.4 16.025 -59.2997 -156.573
332 7.99718 7.95289 1.4 16.8903 -73.7162 62.0815
333 8.99718 7.95289 1.4 17.7697 -63.1775 46.7491
334 9.99718 7.95289 1.4 18.6613 -69.3952 89.3874
335 10.9972 7.95289 1.4 19.5633 -68.0676 60.8879
336 11.9972 7.95289 1.4 20.4745 -74.0903 -22.0644
337 12.9972 7.95289 1.4 21.3936 -65.6778 150.51
338 13.9972 7.95289 1.4 22.3196 -75.4828 11.4717
339 14.9972 7.95289 1.4 23.2518 -76.3059 -127.756
340 15.9972 7.95289 1.4 24.1894 -69.6006 -38.4331
341 16.9972 7.95289 1.4 25.1318 -75.7548 50.2062
342 17.9972 7.95289 1.4 26.0785 -73.3208 -25.6109
343 18.9972 7.95289 1.4 27.0291 -84.6473 -28.8622
344 19.9972 7.95289 1.4 27.983 -83.7305 -130.741
345 20.9972 7.95289 1.4 28.9401 -80.4522 -171.008
346 21.9972 7.95289 1.4 29.9 -74.7026 -170.372
347 22.9972 7.95289 1.4 30.8625 -71.0779 -101.544
348 23.9972 7.95289 1.4 31.8273 -77.0692 133.947
349 24.9972 7.95289 1.4 32.7941 -73.4164 -62.8148
350 25.9972 7.95289 1.4 33.7629 -74.1302 86.679
351 26.9972 7.95289 1.4 34.7335 -81.2053 -171.541
352 27.9972 7.95289 1.4 35.7057 -69.6714 123.633
353 28.9972 7.95289 1.4 36.6794 -70.575 -169.303
354 29.9972 7.95289 1.4 37.6545 -73.6485 28.3618
355 -28.0028 8.95289 1.4 22.4607 -84.836 -129.341
356 -27.0028 8.95289 1.4 21.5166 -75.9707 -83.6052
357 -26.0028 8.95289 1.4 20.5778 -88.4691 122.17
358 -25.0028 8.95289 1.4 19.645 -78.0997 -53.2322
359 -24.0028 8.95289 1.4 18.7191 -76.9456 79.9597
360 -23.0028 8.95289 1.4 17.8013 -85.3453 -84.2909
361 -22.0028 8.95289 1.4 16.8928 -94.968 52.2179
362 -21.0028 8.95289 1.4 15.9953 -86.5588 139.638
363 -20.0028 8.95289 1.4 15.1106 -75.9448 -63.0906
364 -19.0028 8.95289 1.4 14.2411 -86.479 -80.8062
365 -18.0028 8.95289 1.4 13.39 -94.737 -82.8298
366 -17.0028 8.95289 1.4 12.5607 -63.7123 167.379
367 -16.0028 8.95289 1.4 11.7581 -66.1089 57.6568
368 -15.0028 8.95289 1.4 10.9879 -64.961 -162.58
369 -14.0028 8.95289 1.4 10.2574 -66.346 -104.92
370 -13.0028 8.95289 1.4 9.57572 -57.8427 -41.857
371 -12.0028 8.95289 1.4 8.95406 -63.1894 -94.156
372 -11.0028 8.95289 1.4 8.40571 -57.8647 86.0396
373 -10.0028 8.95289 1.4 7.94585 -74.939 98.8966
374 -9.00282 8.95289 1.4 7.59061 -68.0194 -79.8909
375 -8.00282 8.95289 1.4 7.35514 -58.2192 171.677
376 -7.00282 8.95289 1.4 7.25112 -51.2944 94.4805
377 -6.00282 8.95289 1.4 7.28419 -53.5444 78.5973
378 -5.00282 8.95289 1.4 7.45253 -50.9342 104.65
379 -4.00282 8.95289 1.4 7.74732 -67.1565 103.898
380 -3.00282 8.95289 1.4 8.15485 -59.4194 32.5744
381 -2.00282 8.95289 1.4 8.65923 -51.1282 -38.7712
382 -1.00282 8.95289 1.4 9.24462 -56.3964 99.3426
383 -0.00282 8.95289 1.4 9.89665 -62.9495 46.6643
384 0.99718 8.95289 1.4 10.603 -65.855 102.129
385 1.99718 8.95289 1.4 11.3536 -58.2944 -9.54047
386 2.99718 8.95289 1.4 12.1403 -58.6704 -113.061
387 3.99718 8.95289 1.4 12.9563 -59.7929 10.7231
388 4.99718 8.95289 1.4 13.7966 -65.44 5.97425
389 5.99718 8.95289 1.4 14.657 -60.4906 -1.55897
390 6.99718 8.95289 1.4 15.5341 -62.5516 -116.718
391 7.99718 8.95289 1.4 16.4253 -65.4657 -109.844
392 8.99718 8.95289 1.4 17.3283 -62.5397 -44.5967
393 9.99718 8.95289 1.4 18.2415 -75.4172 -129.812
394 10.9972 8.95289 1.4 19.1633 -69.2386 -174.575
395 11.9972 8.95289 1.4 20.0926 -78.9718 148.103
396 12.9972 8.95289 1.4 21.0284 -68.9051 -128.05
397 13.9972 8.95289 1.4 21.9698 -74.1847 -78.1562
398 14.9972 8.95289 1.4 22.9162 -67.9751 153.983
399 15.9972 8.95289 1.4 23.867 -81.0998 12.6294
400 16.9972 8.95289 1.4 24.8217 -71.6509 157.625
401 17.9972 8.95289 1.4 25.7798 -77.1775 179.329
402 18.9972 8.95289 1.4 26.7409 -71.5158 143.127
403 19.9972 8.95289 1.4 27.7048 -78.9129 60.5733
404 20.9972 8.95289 1.4 28.6712 -73.3625 -15.3566
405 21.9972 8.95289 1.4 29.6398 -76.5561 -113.544
406 22.9972 8.95289 1.4 30.6105 -70.7473 -57.3839
407 23.9972 8.95289 1.4 31.5829 -75.9222 68.0677
408 24.9972 8.95289 1.4 32.5571 -73.8538 -135.56
409 25.9972 8.95289 1.4 33.5327 -63.2547 -75.8378
410 26.9972 8.95289 1.4 34.5098 -83.7663 -12.492
411 27.9972 8.95289 1.4 35.4881 -82.857 -158.422
412 28.9972 8.95289 1.4 36.4676 -71.5131 129.486
413 29.9972 8.95289 1.4 37.4482 -66.544 166.965
414 -28.0028 9.95289 1.4 22.1583 -70.5248 -115.156
415 -27.0028 9.95289 1.4 21.2007 -74.8813 -37.4054
416 -26.0028 9.95289 1.4 20.2473 -82.2598 -94.7643
417 -25.0028 9.95289 1.4 19.2985 -75.2872 -94.1784
418 -24.0028 9.95289 1.4 18.3552 -69.7196 2.48782
419 -23.0028 9.95289 1.4 17.4182 -76.9109 -165.352
420 -22.0028 9.95289 1.4 16.4886 -68.1557 -71.8792
421 -21.0028 9.95289 1.4 15.5678 -81.0372 70.1029
422 -20.0028 9.95289 1.4 14.6573 -86.3957 20.0365
423 -19.0028 9.95289 1.4 13.7593 -71.7528 55.9569
424 -18.0028 9.95289 1.4 12.8763 -79.2522 118.431
425 -17.0028 9.95289 1.4 12.0116 -87.777 -177.347
426 -16.0028 9.95289 1.4 11.1696 -70.2974 -27.204
427 -15.0028 9.95289 1.4 10.3557 -73.4962 -123.666
428 -14.0028 9.95289 1.4 9.5771 -63.0386 72.1137
429 -13.0028 9.95289 1.4 8.84316 -69.3856 107.601
430 -12.0028 9.95289 1.4 8.16592 -55.1066 128.956
431 -11.0028 9.95289 1.4 7.56062 -64.7472 32.8851
432 -10.0028 9.95289 1.4 7.04583 -70.6152 -71.6047
433 -9.00282 9.95289 1.4 6.64262 -62.9978 1.09523
434 -8.00282 9.95289 1.4 6.37221 -67.4396 4.55713
435 -7.00282 9.95289 1.4 6.25186 -48.2844 -111.976
436 -6.00282 9.95289 1.4 6.29019 -47.2085 112.698
437 -5.00282 9.95289 1.4 6.48438 -48.6801 4.47357
438 -4.00282 9.95289 1.4 6.82114 -66.1771 -98.4473
439 -3.00282 9.95289 1.4 7.28071 -52.9439 92.4733
440 -2.00282 9.95289 1.4 7.84152 -63.367 115.797
441 -1.00282 9.95289 1.4 8.48352 -55.0625 -160.641
442 -0.00282 9.95289 1.4 9.18971 -57.5974 -75.4995
443 0.99718 9.95289 1.4 9.94643 -71.4297 -111.573
444 1.99718 9.95289 1.4 10.743 -58.0883 50.3112
445 2.99718 9.95289 1.4 11.5712 -59.0898 123.042
446 3.99718 9.95289 1.4 12.4247 -67.8157 91.0036
447 4.99718 9.95289 1.4 13.2987 -64.7243 -159.193
448 5.99718 9.95289 1.4 14.1893 -65.7546 86.4793
449 6.99718 9.95289 1.4 15.0936 -65.7849 55.5317
450 7.99718 9.95289 1.4 16.0093 -65.2462 130.451
451 8.99718 9.95289 1.4 16.9345 -65.4705 89.8711
452 9.99718 9.95289 1.4 17.8678 -69.8453 -21.7127
453 10.9972 9.95289 1.4 18.8079 -73.3773 -159.692
454 11.9972 9.95289 1.4 19.754 -70.1512 19.144
455 12.9972 9.95289 1.4 20.7051 -71.5228 -6.18879
456 13.9972 9.95289 1.4 21.6606 -83.0485 102.454
457 14.9972 9.95289 1.4 22.6199 -65.9134 61.7505
458 15.9972 9.95289 1.4 23.5827 -66.4562 94.1669
459 16.9972 9.95289 1.4 24.5484 -68.3001 58.4136
460 17.9972 9.95289 1.4 25.5167 -70.1146 8.57613
461 18.9972 9.95289 1.4 26.4874 -73.0576 21.554
462 19.9972 9.95289 1.4 27.4602 -67.5843 83.783
463 20.9972 9.95289 1.4 28.4349 -73.6985 116.541
464 21.9972 9.95289 1.4 29.4113 -68.1419 165.529
465 22.9972 9.95289 1.4 30.3893 -70.9918 157.647
466 23.9972 9.95289 1.4 31.3686 -67.0623 -6.11194
467 24.9972 9.95289 1.4 32.3492 -67.106 40.0504
468 25.9972 9.95289 1.4 33.3309 -66.266 25.706
469 26.9972 9.95289 1.4 34.3137 -61.736 -49.2489
470 27.9972 9.95289 1.4 35.2975 -66.1279 -136.844
471 28.9972 9.95289 1.4 36.2821 -61.9902 -36.3688
472 29.9972 9.95289 1.4 37.2676 -58.7281 -98.2352
473 -28.0028 10.9529 1.4 21.8974 -80.1851 17.1051
474 -27.0028 10.9529 1.4 20.9279 -75.2999 -163.747
475 -26.0028 10.9529 1.4 19.9614 -65.9889 3.46524
476 -25.0028 10.9529 1.4 18.9984 -75.7776 56.9814
477 -24.0028 10.9529 1.4 18.0394 -78.8062 -77.4787
478 -23.0028 10.9529 1.4 17.0851 -70.4412 148.258
479 -22.0028 10.9529 1.4 16.1364 -67.8198 0.859408
480 -21.0028 10.9529 1.4 15.1942 -72.2375 115.547
481 -20.0028 10.9529 1.4 14.2599 -73.9318 142.543
482 -19.0028 10.9529 1.4 13.3351 -72.2643 -161.141
483 -18.0028 10.9529 1.4 12.422 -71.4481 -146.606
484 -17.0028 10.9529 1.4 11.5233 -77.7926 74.3591
485 -16.0028 10.9529 1.4 10.6427 -73.4352 0.937409
486 -15.0028 10.9529 1.4 9.78505 -76.4657 -28.9845
487 -14.0028 10.9529 1.4 8.957 -67.7392 38.0617
488 -13.0028 10.9529 1.4 8.16753 -61.7191 -165.771
489 -12.0028 10.9529 1.4 7.42895 -65.5748 -126.881
490 -11.0028 10.9529 1.4 6.75796 -58.898 -39.7631
491 -10.0028 10.9529 1.4 6.17663 -55.797 -166.363
492 -9.00282 10.9529 1.4 5.71239 -56.9127 150.324
493 -8.00282 10.9529 1.4 5.39557 -77.8077 -170.978
494 -7.00282 10.9529 1.4 5.25289 -55.2792 -74.2097
495 -6.00282 10.9529 1.4 5.29845 -48.8706 -94.6523
496 -5.00282 10.9529 1.4 5.52759 -57.3672 65.8458
497 -4.00282 10.9529 1.4 5.91904 -71.0582 22.2277
498 -3.00282 10.9529 1.4 6.44327 -58.1403 11.132
499 -2.00282 10.9529 1.4 7.07082 -60.0312 77.8586
500 -1.00282 10.9529 1.4 7.77671 -61.5716 124.495
501 -0.00282 10.9529 1.4 8.54154 -63.7489 42.1869
502 0.99718 10.9529 1.4 9.35086 -56.6072 -146.887
503 1.99718 10.9529 1.4 10.1941 -58.125 -131.012
504 2.99718 10.9529 1.4 11.0635 -67.0602 -178.405
505 3.99718 10.9529 1.4 11.9533 -64.2733 41.8527
506 4.99718 10.9529 1.4 12.8593 -66.8599 -63.7198
507 5.99718 10.9529 1.4 13.7783 -66.4805 -64.8494
508 6.99718 10.9529 1.4 14.7079 -65.2719 -16.4586
509 7.99718 10.9529 1.4 15.6462 -67.5858 -45.5887
510 8.99718 10.9529 1.4 16.5917 -68.7965 133.219
511 9.99718 10.9529 1.4 17.5432 -71.4214 10.15
512 10.9972 10.9529 1.4 18.4999 -70.9639 148.79
513 11.9972 10.9529 1.4 19.4609 -65.7085 -123.489
514 12.9972 10.9529 1.4 20.4257 -72.4419 -70.8316
515 13.9972 10.9529 1.4 21.3936 -70.4524 -27.4566
516 14.9972 10.9529 1.4 22.3645 -79.9541 -97.112
517 15.9972 10.9529 1.4 23.3377 -76.0055 -44.0827
518 16.9972 10.9529 1.4 24.3132 -79.2033 59.3876
519 17.9972 10.9529 1.4 25.2905 -65.6607 178.748
520 18.9972 10.9529 1.4 26.2696 -76.7888 170.971
521 19.9972 10.9529 1.4 27.2502 -68.5583 173.448
522 20.9972 10.9529 1.4 28.2321 -62.3021 69.8881
523 21.9972 10.9529 1.4 29.2153 -61.676 55.5124
524 22.9972 10.9529 1.4 30.1996 -75.7524 -49.0576
525 23.9972 10.9529 1.4 31.1849 -63.503 -53.8489
526 24.9972 10.9529 1.4 32.171 -72.8541 -139.083
527 25.9972 10.9529 1.4 33.1581 -59.1961 92.1889
528 26.9972 10.9529 1.4 34.1458 -66.4809 50.411
529 27.9972 10.9529 1.4 35.1343 -63.3111 0.819004
530 28.9972 10.9529 1.4 36.1234 -67.7504 -79.8428
531 29.9972 10.9529 1.4 37.1131 -64.9159 175.599
532 -28.0028 11.9529 1.4 21.6796 -73.4159 5.27648
533 -27.0028 11.9529 1.4 20.6999 -75.4205 55.8866
534 -26.0028 11.9529 1.4 19.7222 -63.344 140.666
535 -25.0028 11.9529 1.4 18.7469 -59.8908 140.889
536 -24.0028 11.9529 1.4 17.7744 -62.9067 149.129
537 -23.0028 11.9529 1.4 16.805 -60.9503 42.0347
538 -22.0028 11.9529 1.4 15.8395 -69.8213 -41.1367
539 -21.0028 11.9529 1.4 14.8785 -60.4631 23.009
540 -20.0028 11.9529 1.4 13.923 -57.7394 -58.7825
541 -19.0028 11.9529 1.4 12.9743 -63.7201 -155.216
542 -18.0028 11.9529 1.4 12.0338 -57.2076 138.537
543 -17.0028 11.9529 1.4 11.1037 -60.2707 95.1566
544 -16.0028 11.9529 1.4 10.1869 -62.7527 127.917
545 -15.0028 11.9529 1.4 9.28731 -57.3408 65.7758
546 -14.0028 11.9529 1.4 8.4104 -58.2115 -4.80378
547 -13.0028 11.9529 1.4 7.5641 -55.4086 13.378
548 -12.0028 11.9529 1.4 6.75991 -62.7485 -90.8543
549 -11.0028 11.9529 1.4 6.01474 -55.6758 33.0707
550 -10.0028 11.9529 1.4 5.3533 -63.328 146.86
551 -9.00282 11.9529 1.4 4.81025 -60.5296 -33.0736
552 -8.00282 11.9529 1.4 4.42936 -65.4891 96.4666
553 -7.00282 11.9529 1.4 4.2544 -42.6344 67.7625
554 -6.00282 11.9529 1.4 4.31053 -45.5086 -113.897
555 -5.00282 11.9529 1.4 4.58927 -46.5336 85.1889
556 -4.00282 11.9529 1.4 5.05392 -46.1363 146.837
557 -3.00282 11.9529 1.4 5.65887 -49.8401 -167.929
558 -2.00282 11.9529 1.4 6.36424 -48.4001 -81.7576
559 -1.00282 11.9529 1.4 7.14032 -50.0496 129.97
560 -0.00282 11.9529 1.4 7.96649 -48.4532 -148.789
561 0.99718 11.9529 1.4 8.82868 -51.3988 147.796
562 1.99718 11.9529 1.4 9.71732 -55.4487 -53.2141
563 2.99718 11.9529 1.4 10.6258 -59.8217 22.8327
564 3.99718 11.9529 1.4 11.5494 -61.7955 -61.0302
565 4.99718 11.9529 1.4 12.4847 -56.9826 -135.017
566 5.99718 11.9529 1.4 13.4294 -64.0338 80.297
567 6.99718 11.9529 1.4 14.3816 -63.8974 163.043
568 7.99718 11.9529 1.4 15.3398 -62.4621 -102.752
569 8.99718 11.9529 1.4 16.3031 -63.6678 27.544
570 9.99718 11.9529 1.4 17.2706 -53.6756 -155.257
571 10.9972 11.9529 1.4 18.2415 -55.1083 -113.221
572 11.9972 11.9529 1.4 19.2155 -53.2644 -99.7202
573 12.9972 11.9529 1.4 20.1919 -62.3134 -71.9387
574 13.9972 11.9529 1.4 21.1706 -62.6661 88.5709
575 14.9972 11.9529 1.4 22.1512 -56.0217 13.5478
576 15.9972 11.9529 1.4 23.1334 -59.8397 -55.2172
577 16.9972 11.9529 1.4 24.1172 -61.1193 -28.5159
578 17.9972 11.9529 1.4 25.1021 -58.4834 -136.725
579 18.9972 11.9529 1.4 26.0883 -66.975 56.2633
580 19.9972 11.9529 1.4 27.0754 -62.0654 137.865
581 20.9972 11.9529 1.4 28.0635 -76.3271 -172.017
582 21.9972 11.9529 1.4 29.0524 -71.2257 -73.7446
583 22.9972 11.9529 1.4 30.042 -66.1967 -105.702
584 23.9972 11.9529 1.4 31.0323 -64.8667 138.723
585 24.9972 11.9529 1.4 32.0232 -60.9431 150.104
586 25.9972 11.9529 1.4 33.0146 -60.3236 104.046
587 26.9972 11.9529 1.4 34.0065 -62.1242 55.1575
588 27.9972 11.9529 1.4 34.9989 -72.3841 -144.094
589 28.9972 11.9529 1.4 35.9917 -63.4554 -131.831
590 29.9972 11.9529 1.4 36.9849 -61.3681 -139.851
591 -28.0028 12.9529 1.4 21.5061 -69.8822 174.137
592 -27.0028 12.9529 1.4 20.5181 -62.4892 114.728
593 -26.0028 12.9529 1.4 19.5313 -63.7344 113.297
594 -25.0028 12.9529 1.4 18.546 -64.1136 110.67
595 -24.0028 12.9529 1.4 17.5623 -70.8897 -103.244
596 -23.0028 12.9529 1.4 16.5806 -64.4743 -74.7627
597 -22.0028 12.9529 1.4 15.6012 -67.4522 -81.1687
598 -21.0028 12.9529 1.4 14.6245 -64.9524 88.9518
599 -20.0028 12.9529 1.4 13.6513 -65.081 95.4259
600 -19.0028 12.9529 1.4 12.6822 -64.3209 86.2861
601 -18.0028 12.9529 1.4 11.7183 -58.2222 167.718
602 -17.0028 12.9529 1.4 10.761 -75.4858 165.171
603 -16.0028 12.9529 1.4 9.81226 -56.6481 -100.17
604 -15.0028 12.9529 1.4 8.87475 -59.9309 -6.34146
605 -14.0028 12.9529 1.4 7.95248 -62.4792 29.3048
606 -13.0028 12.9529 1.4 7.05143 -58.6168 75.6414
607 -12.0028 12.9529 1.4 6.18089 -64.1804 131.377
608 -11.0028 12.9529 1.4 5.35576 -59.8403 140.842
609 -10.0028 12.9529 1.4 4.60053 -53.0847 -105.153
610 -9.00282 12.9529 1.4 3.95545 -61.495 -95.875
611 -8.00282 12.9529 1.4 3.48228 -59.3865 -44.8942
612 -7.00282 12.9529 1.4 3.25684 -44.1924 107.989
613 -6.00282 12.9529 1.4 3.32982 -40.1099 -128.329
614 -5.00282 12.9529 1.4 3.68353 -45.3992 -67.2027
615 -4.00282 12.9529 1.4 4.24843 -45.2087 31.5122
616 -3.00282 12.9529 1.4 4.95276 -45.4311 134.141
617 -2.00282 12.9529 1.4 5.74548 -58.4957 -66.666
618 -1.00282 12.9529 1.4 6.59479 -68.0957 -155.27
619 -0.00282 12.9529 1.4 7.48144 -69.1295 -134.145
620 0.99718 12.9529 1.4 8.39361 -64.0113 157.578
621 1.99718 12.9529 1.4 9.32381 -57.8759 -117.919
622 2.99718 12.9529 1.4 10.2671 -74.7482 -27.4342
623 3.99718 12.9529 1.4 11.2203 -55.3075 -75.9381
624 4.99718 12.9529 1.4 12.181 -60.8778 -66.9695
625 5.99718 12.9529 1.4 13.1475 -57.6755 -142.805
626 6.99718 12.9529 1.4 14.1187 -54.2384 104.258
627 7.99718 12.9529 1.4 15.0936 -70.7885 179.097
628 8.99718 12.9529 1.4 16.0717 -62.3778 -13.9673
629 9.99718 12.9529 1.4 17.0522 -61.5632 -62.2808
630 10.9972 12.9529 1.4 18.035 -60.1259 -46.3442
631 11.9972 12.9529 1.4 19.0195 -59.9051 -116.118
632 12.9972 12.9529 1.4 20.0055 -59.4164 162.812
633 13.9972 12.9529 1.4 20.9929 -64.1025 -41.9877
634 14.9972 12.9529 1.4 21.9814 -59.0755 -48.6806
635 15.9972 12.9529 1.4 22.9709 -58.7855 -71.344
636 16.9972 12.9529 1.4 23.9613 -67.1895 -97.5062
637 17.9972 12.9529 1.4 24.9525 -65.0017 -75.5037
638 18.9972 12.9529 1.4 25.9443 -70.8941 -81.3886
639 19.9972 12.9529 1.4 26.9367 -67.1376 48.6511
640 20.9972 12.9529 1.4 27.9297 -80.696 -21.9229
641 21.9972 12.9529 1.4 28.9231 -66.9756 101.976
642 22.9972 12.9529 1.4 29.917 -63.8531 81.4262
643 23.9972 12.9529 1.4 30.9113 -64.7848 124.845
644 24.9972 12.9529 1.4 31.906 -64.0431 116.036
645 25.9972 12.9529 1.4 32.9009 -72.6938 -139.88
646 26.9972 12.9529 1.4 33.8962 -62.8511 -103.895
647 27.9972 12.9529 1.4 34.8917 -61.9671 -131.589
648 28.9972 12.9529 1.4 35.8875 -64.7881 -125.974
649 29.9972 12.9529 1.4 36.8835 -64.074 -167.304
650 -28.0028 13.9529 1.4 21.378 -69.8594 42.7411
651 -27.0028 13.9529 1.4 20.3838 -64.8806 63.1049
652 -26.0028 13.9529 1.4 19.3902 -69.1156 -28.8597
653 -25.0028 13.9529 1.4 18.3973 -72.3534 -111.37
654 -24.0028 13.9529 1.4 17.4052 -73.3249 152.998
655 -23.0028 13.9529 1.4 16.4141 -63.4552 165.759
656 -22.0028 13.9529 1.4 15.4241 -74.2799 -97.8157
657 -21.0028 13.9529 1.4 14.4355 -61.4221 -53.6361
658 -20.0028 13.9529 1.4 13.4486 -63.3593 61.8226
659 -19.0028 13.9529 1.4 12.4638 -69.7854 -79.0663
660 -18.0028 13.9529 1.4 11.4816 -62.6737 -98.3264
661 -17.0028 13.9529 1.4 10.5027 -66.6975 161.952
662 -16.0028 13.9529 1.4 9.52825 -70.6948 -53.7035
663 -15.0028 13.9529 1.4 8.55969 -58.9435 -89.8862
664 -14.0028 13.9529 1.4 7.59928 -66.7729 9.527
665 -13.0028 13.9529 1.4 6.65054 -66.9392 117.248
666 -12.0028 13.9529 1.4 5.71931 -58.6712 129.47
667 -11.0028 13.9529 1.4 4.81572 -59.0191 -125.946
668 -10.0028 13.9529 1.4 3.95877 -50.4256 -84.6754
669 -9.00282 13.9529 1.4 3.18632 -54.1135 66.746
670 -8.00282 13.9529 1.4 2.57552 -51.3499 -22.1495
671 -7.00282 13.9529 1.4 2.26142 -37.0825 137.393
672 -6.00282 13.9529 1.4 2.36532 -40.8892 -176.738
673 -5.00282 13.9529 1.4 2.84174 -47.3579 -136.79
674 -4.00282 13.9529 1.4 3.54347 -45.0947 -2.31542
675 -3.00282 13.9529 1.4 4.36313 -43.2439 60.1454
676 -2.00282 13.9529 1.4 5.24572 -51.2667 127.373
677 -1.00282 13.9529 1.4 6.16428 -56.3586 -163.934
678 -0.00282 13.9529 1.4 7.10486 -60.1505 -146.14
679 0.99718 13.9529 1.4 8.05976 -52.3404 50.2425
680 1.99718 13.9529 1.4 9.02444 -55.9039 111.796
681 2.99718 13.9529 1.4 9.99606 -69.4954 97.065
682 3.99718 13.9529 1.4 10.9728 -59.4492 -60.9984
683 4.99718 13.9529 1.4 11.9534 -55.7303 97.8754
684 5.99718 13.9529 1.4 12.9369 -61.8188 -158.074
685 6.99718 13.9529 1.4 13.9228 -58.0161 104.031
686 7.99718 13.9529 1.4 14.9106 -57.3695 75.8649
687 8.99718 13.9529 1.4 15.8999 -57.4928 6.9552
688 9.99718 13.9529 1.4 16.8904 -59.3639 17.9672
689 10.9972 13.9529 1.4 17.882 -59.7464 -45.0738
690 11.9972 13.9529 1.4 18.8745 -59.5193 150.071
691 12.9972 13.9529 1.4 19.8678 -71.9044 -34.7025
692 13.9972 13.9529 1.4 20.8617 -63.847 -110.84
693 14.9972 13.9529 1.4 21.8561 -69.7061 2.03356
694 15.9972 13.9529 1.4 22.8511 -67.1466 173.546
695 16.9972 13.9529 1.4 23.8464 -77.4842 -134.544
696 17.9972 13.9529 1.4 24.8421 -78.969 -172.757
697 18.9972 13.9529 1.4 25.8382 -82.2007 115.707
698 19.9972 13.9529 1.4 26.8346 -65.6214 70.3236
699 20.9972 13.9529 1.4 27.8312 -73.6753 19.6033
700 21.9972 13.9529 1.4 28.828 -65.8723 -29.9686
701 22.9972 13.9529 1.4 29.8251 -64.5173 -89.1956
702 23.9972 13.9529 1.4 30.8223 -63.0535 -81.6595
703 24.9972 13.9529 1.4 31.8198 -80.2864 -103.238
704 25.9972 13.9529 1.4 32.8173 -62.2448 -153.455
705 26.9972 13.9529 1.4 33.8151 -60.6418 -147.387
706 27.9972 13.9529 1.4 34.8129 -64.5283 -174.35
707 28.9972 13.9529 1.4 35.8109 -62.6315 118.051
708 29.9972 13.9529 1.4 36.809 -65.3558 96.4968
709 -28.0028 14.9529 1.4 21.2962 -63.4809 -80.7683
710 -27.0028 14.9529 1.4 20.2979 -73.1244 106.479
711 -26.0028 14.9529 1.4 19.2999 -71.3406 -4.95457
712 -25.0028 14.9529 1.4 18.3021 -65.899 34.8485
713 -24.0028 14.9529 1.4 17.3046 -78.9817 84.0622
714 -23.0028 14.9529 1.4 16.3073 -78.2999 135.832
715 -22.0028 14.9529 1.4 15.3105 -69.6331 -143.145
716 -21.0028 14.9529 1.4 14.314 -82.5036 -0.179971
717 -20.0028 14.9529 1.4 13.3181 -59.588 81.2386
718 -19.0028 14.9529 1.4 12.3228 -53.6061 117.488
719 -18.0028 14.9529 1.4 11.3284 -60.2482 168.52
720 -17.0028 14.9529 1.4 10.3351 -67.0621 -107.975
721 -16.0028 14.9529 1.4 9.34316 -50.5214 37.7867
722 -15.0028 14.9529 1.4 8.35317 -50.6086 45.4671
723 -14.0028 14.9529 1.4 7.36587 -57.0314 82.7238
724 -13.0028 14.9529 1.4 6.38254 -54.5401 -55.693
725 -12.0028 14.9529 1.4 5.40532 -48.74 -59.2478
726 -11.0028 14.9529 1.4 4.43827 -47.7939 92.3598
727 -10.0028 14.9529 1.4 3.48984 -41.34 124.332
728 -9.00282 14.9529 1.4 2.58063 -44.7534 -60.081
729 -8.00282 14.9529 1.4 1.77211 -41.0975 -131.348
730 -7.00282 14.9529 1.4 1.27323 -39.6839 -88.7355
731 -6.00282 14.9529 1.4 1.44977 -35.8175 23.5894
732 -5.00282 14.9529 1.4 2.14069 -46.0131 148.476
733 -4.00282 14.9529 1.4 3.01052 -47.0847 -120.453
734 -3.00282 14.9529 1.4 3.94258 -46.5791 -145.304
735 -2.00282 14.9529 1.4 4.9015 -52.0379 18.4312
736 -1.00282 14.9529 1.4 5.87413 -52.2111 95.5026
737 -0.00282 14.9529 1.4 6.85464 -51.1448 165.191
738 0.99718 14.9529 1.4 7.84008 -47.8436 -176.29
739 1.99718 14.9529 1.4 8.82879 -58.3683 146.394
740 2.99718 14.9529 1.4 9.81979 -51.9112 92.7711
741 3.99718 14.9529 1.4 10.8124 -58.3473 -20.3099
742 4.99718 14.9529 1.4 11.8063 -54.5864 -76.3834
743 5.99718 14.9529 1.4 12.8012 -63.4495 166.042
744 6.99718 14.9529 1.4 13.7968 -58.9339 -169.938
745 7.99718 14.9529 1.4 14.793 -63.2862 69.8759
746 8.99718 14.9529 1.4 15.7896 -54.8188 -91.9113
747 9.99718 14.9529 1.4 16.7867 -76.7751 -32.4444
748 10.9972 14.9529 1.4 17.7841 -72.5559 -104.138
749 11.9972 14.9529 1.4 18.7818 -72.3761 168.137
750 12.9972 14.9529 1.4 19.7797 -73.2841 48.5993
751 13.9972 14.9529 1.4 20.7778 -77.032 8.39565
752 14.9972 14.9529 1.4 21.7761 -73.403 162.371
753 15.9972 14.9529 1.4 22.7745 -74.3216 -3.49742
754 16.9972 14.9529 1.4 23.7731 -73.5907 68.858
755 17.9972 14.9529 1.4 24.7717 -82.0329 125.951
756 18.9972 14.9529 1.4 25.7705 -77.6336 -94.2247
757 19.9972 14.9529 1.4 26.7694 -78.7805 178.87
758 20.9972 14.9529 1.4 27.7683 -77.9643 -160.77
759 21.9972 14.9529 1.4 28.7674 -70.3418 104.56
760 22.9972 14.9529 1.4 29.7665 -71.24 107.397
761 23.9972 14.9529 1.4 30.7656 -79.466 -12.7992
762 24.9972 14.9529 1.4 31.7648 -77.9433 -20.3865
763 25.9972 14.9529 1.4 32.7641 -86.0427 -72.7773
764 26.9972 14.9529 1.4 33.7634 -79.4335 -5.11226
765 27.9972 14.9529 1.4 34.7627 -88.8505 -80.8632
766 28.9972 14.9529 1.4 35.7621 -94.7998 -56.3549
767 29.9972 14.9529 1.4 36.7615 -82.565 20.1136
768 -28.0028 15.9529 1.4 21.2611 -70.977 -98.992
769 -27.0028 15.9529 1.4 20.2611 -69.9032 -29.5465
770 -26.0028 15.9529 1.4 19.2612 -67.4349 131.301
771 -25.0028 15.9529 1.4 18.2613 -75.2702 -115.868
772 -24.0028 15.9529 1.4 17.2614 -76.1484 -146.937
773 -23.0028 15.9529 1.4 16.2615 -66.9355 -99.6996
774 -22.0028 15.9529 1.4 15.2616 -68.5525 -124.956
775 -21.0028 15.9529 1.4 14.2618 -68.2778 127.559
776 -20.0028 15.9529 1.4 13.2619 -69.7227 -103.521
777 -19.0028 15.9529 1.4 12.2621 -60.4883 -174.547
778 -18.0028 15.9529 1.4 11.2623 -63.3324 9.8889
779 -17.0028 15.9529 1.4 10.2626 -62.5526 11.9839
780 -16.0028 15.9529 1.4 9.26292 -64.3865 128.915
781 -15.0028 15.9529 1.4 8.26332 -55.1774 -111.848
782 -14.0028 15.9529 1.4 7.26382 -62.226 16.5029
783 -13.0028 15.9529 1.4 6.26449 -61.8449 156.716
784 -12.0028 15.9529 1.4 5.26541 -49.8762 126.734
785 -11.0028 15.9529 1.4 4.26677 -56.0884 8.48574
786 -10.0028 15.9529 1.4 3.26895 -55.8195 -28.8589
787 -9.00282 15.9529 1.4 2.27304 -40.8314 64.9592
788 -8.00282 15.9529 1.4 1.28353 -38.584 120.315
789 -7.00282 15.9529 1.4 0.357996 -28.4783 -1.29478
790 -6.00282 15.9529 1.4 0.780306 -31.4076 -133.031
791 -5.00282 15.9529 1.4 1.75772 -39.6949 -179.178
792 -4.00282 15.9529 1.4 2.75142 -36.2902 118.772
793 -3.00282 15.9529 1.4 3.74847 -42.9174 18.2018
794 -2.00282 15.9529 1.4 4.74676 -44.7008 -66.836
795 -1.00282 15.9529 1.4 5.74565 -46.0913 -122.228
796 -0.00282 15.9529 1.4 6.74486 -51.2673 136.651
797 0.99718 15.9529 1.4 7.74428 -48.2385 22.8302
798 1.99718 15.9529 1.4 8.74383 -54.4558 14.5673
799 2.99718 15.9529 1.4 9.74348 -47.0891 -164.328
800 3.99718 15.9529 1.4 10.7432 -55.333 140.848
801 4.99718 15.9529 1.4 11.7429 -53.5505 107.856
802 5.99718 15.9529 1.4 12.7427 -63.7987 -75.5023
803 6.99718 15.9529 1.4 13.7426 -53.7595 -148.014
804 7.99718 15.9529 1.4 14.7424 -67.2929 -92.3945
805 8.99718 15.9529 1.4 15.7423 -54.1502 39.6556
806 9.99718 15.9529 1.4 16.7422 -57.8515 56.9155
807 10.9972 15.9529 1.4 17.7421 -63.7585 -11.0717
808 11.9972 15.9529 1.4 18.742 -69.4716 -21.0981
809 12.9972 15.9529 1.4 19.7419 -76.4228 -80.8908
810 13.9972 15.9529 1.4 20.7418 -75.0384 -89.2928
811 14.9972 15.9529 1.4 21.7418 -73.58 173.86
812 15.9972 15.9529 1.4 22.7417 -71.413 -20.0404
813 16.9972 15.9529 1.4 23.7416 -72.3652 155.163
814 17.9972 15.9529 1.4 24.7416 -74.0184 -79.9721
815 18.9972 15.9529 1.4 25.7415 -74.6111 46.7745
816 19.9972 15.9529 1.4 26.7415 -74.2784 118.595
817 20.9972 15.9529 1.4 27.7415 -74.4443 58.225
818 21.9972 15.9529 1.4 28.7414 -76.6157 117.403
819 22.9972 15.9529 1.4 29.7414 -74.6691 71.3977
820 23.9972 15.9529 1.4 30.7413 -82.9046 18.6291
821 24.9972 15.9529 1.4 31.7413 -75.3066 -26.1414
822 25.9972 15.9529 1.4 32.7413 -78.5909 -125.362
823 26.9972 15.9529 1.4 33.7413 -97.4393 -87.2253
824 27.9972 15.9529 1.4 34.7412 -84.8505 -98.374
825 28.9972 15.9529 1.4 35.7412 -84.8781 -164.928
826 29.9972 15.9529 1.4 36.7412 -81.5241 152.806
827 -28.0028 16.9529 1.4 21.273 -79.4879 -3.40019
828 -27.0028 16.9529 1.4 20.2737 -73.3833 -15.8719
829 -26.0028 16.9529 1.4 19.2744 -76.188 104.818
830 -25.0028 16.9529 1.4 18.2752 -76.3899 -103.785
831 -24.0028 16.9529 1.4 17.2761 -69.8546 139.445
832 -23.0028 16.9529 1.4 16.2771 -67.3914 141.698
833 -22.0028 16.9529 1.4 15.2782 -70.1207 -7.17057
834 -21.0028 16.9529 1.4 14.2795 -90.4496 64.2254
835 -20.0028 16.9529 1.4 13.281 -56.4749 -164.815
836 -19.0028 16.9529 1.4 12.2828 -52.9532 -152.666
837 -18.0028 16.9529 1.4 11.2848 -67.3987 -69.124
838 -17.0028 16.9529 1.4 10.2873 -55.2239 -174.158
839 -16.0028 16.9529 1.4 9.29025 -53.2521 131.52
840 -15.0028 16.9529 1.4 8.29394 -52.2818 -178.739
841 -14.0028 16.9529 1.4 7.29864 -54.0235 -64.2369
842 -13.0028 16.9529 1.4 6.30483 -46.5919 12.2719
843 -12.0028 16.9529 1.4 5.31335 -55.1846 102.137
844 -11.0028 16.9529 1.4 4.32578 -48.8856 66.2388
845 -10.0028 16.9529 1.4 3.3456 -44.7912 126.421
846 -9.00282 16.9529 1.4 2.38197 -45.9896 80.1502
847 -8.00282 16.9529 1.4 1.46782 -40.3827 -14.8424
848 -7.00282 16.9529 1.4 0.797007 -34.0245 149.518
849 -6.00282 16.9529 1.4 1.05638 -35.6034 152.875
850 -5.00282 16.9529 1.4 1.89648 -46.0255 -128.629
851 -4.00282 16.9529 1.4 2.84207 -43.1389 -65.9997
852 -3.00282 16.9529 1.4 3.81551 -46.1479 -136.319
853 -2.00282 16.9529 1.4 4.79988 -41.4124 -174.328
854 -1.00282 16.9529 1.4 5.7896 -45.2087 157.867
855 -0.00282 16.9529 1.4 6.78235 -52.4651 64.1677
856 0.99718 16.9529 1.4 7.77695 -53.7035 -53.6773
857 1.99718 16.9529 1.4 8.77278 -55.3968 28.0508
858 2.99718 16.9529 1.4 9.76946 -49.7316 167.982
859 3.99718 16.9529 1.4 10.7668 -54.6149 57.2024
860 4.99718 16.9529 1.4 11.7645 -49.7511 20.4368
861 5.99718 16.9529 1.4 12.7626 -65.1788 -38.5212
862 6.99718 16.9529 1.4 13.761 -57.4815 -175.701
863 7.99718 16.9529 1.4 14.7596 -57.7693 55.9129
864 8.99718 16.9529 1.4 15.7584 -58.9624 62.4256
865 9.99718 16.9529 1.4 16.7573 -60.0562 -46.4026
866 10.9972 16.9529 1.4 17.7564 -70.6107 -25.612
867 11.9972 16.9529 1.4 18.7555 -70.7391 -17.8595
868 12.9972 16.9529 1.4 19.7547 -66.8026 -161.972
869 13.9972 16.9529 1.4 20.754 -71.3916 156.183
870 14.9972 16.9529 1.4 21.7534 -74.7906 37.8241
871 15.9972 16.9529 1.4 22.7528 -91.2374 28.5858
872 16.9972 16.9529 1.4 23.7523 -75.1685 117.47
873 17.9972 16.9529 1.4 24.7518 -80.8428 -71.3343
874 18.9972 16.9529 1.4 25.7514 -79.5871 122.473
875 19.9972 16.9529 1.4 26.751 -76.4448 -179.546
876 20.9972 16.9529 1.4 27.7506 -81.4853 -54.6072
877 21.9972 16.9529 1.4 28.7502 -76.0705 -26.3903
878 22.9972 16.9529 1.4 29.7499 -77.7856 -64.9086
879 23.9972 16.9529 1.4 30.7496 -78.5284 -102.998
880 24.9972 16.9529 1.4 31.7493 -83.7113 -103.145
881 25.9972 16.9529 1.4 32.749 -83.4358 177.967
882 26.9972 16.9529 1.4 33.7488 -86.7444 -37.4906
883 27.9972 16.9529 1.4 34.7485 -78.1873 102.932
884 28.9972 16.9529 1.4 35.7483 -81.2641 99.5147
885 29.9972 16.9529 1.4 36.7481 -78.123 173.607
886 -28.0028 17.9529 1.4 21.3318 -96.5331 128.278
887 -27.0028 17.9529 1.4 20.3354 -78.059 29.8551
888 -26.0028 17.9529 1.4 19.3393 -79.9524 153.436
889 -25.0028 17.9529 1.4 18.3436 -77.0847 1.68922
890 -24.0028 17.9529 1.4 17.3485 -88.7701 -170.973
891 -23.0028 17.9529 1.4 16.3539 -90.1925 -134.109
892 -22.0028 17.9529 1.4 15.3601 -69.1061 -17.3069
893 -21.0028 17.9529 1.4 14.3671 -85.6181 145.101
894 -20.0028 17.9529 1.4 13.3751 -65.6555 -73.7411
895 -19.0028 17.9529 1.4 12.3844 -52.0755 -15.1814
896 -18.0028 17.9529 1.4 11.3954 -62.26 -94.9541
897 -17.0028 17.9529 1.4 10.4084 -58.5995 91.6858
898 -16.0028 17.9529 1.4 9.42422 -59.5099 -100.08
899 -15.0028 17.9529 1.4 8.44373 -57.767 -155.199
900 -14.0028 17.9529 1.4 7.46842 -49.6358 160.102
901 -13.0028 17.9529 1.4 6.50061 -49.7955 129.303
902 -12.0028 17.9529 1.4 5.54425 -52.9787 130.884
903 -11.0028 17.9529 1.4 4.60645 -48.878 4.76357
904 -10.0028 17.9529 1.4 3.70137 -51.1412 -88.9405
905 -9.00282 17.9529 1.4 2.86022 -48.3572 -127.659
906 -8.00282 17.9529 1.4 2.15907 -52.1288 166.144
907 -7.00282 17.9529 1.4 1.77265 -39.061 82.6331
908 -6.00282 17.9529 1.4 1.90342 -40.5304 146.22
909 -5.00282 17.9529 1.4 2.47057 -42.3526 -105.764
910 -4.00282 17.9529 1.4 3.25337 -40.5726 93.0333
911 -3.00282 17.9529 1.4 4.131 -54.6687 62.5591
912 -2.00282 17.9529 1.4 5.05429 -56.194 147.236
913 -1.00282 17.9529 1.4 6.00221 -54.6806 -92.1987
914 -0.00282 17.9529 1.4 6.96472 -50.7874 -134.37
915 0.99718 17.9529 1.4 7.9365 -51.8737 -168.71
916 1.99718 17.9529 1.4 8.91452 -52.0512 126.802
917 2.99718 17.9529 1.4 9.89694 -51.8092 133.787
918 3.99718 17.9529 1.4 10.8826 -60.2421 151.949
919 4.99718 17.9529 1.4 11.8706 -50.1327 153.398
920 5.99718 17.9529 1.4 12.8605 -74.4866 136.038
921 6.99718 17.9529 1.4 13.8518 -66.1077 111.311
922 7.99718 17.9529 1.4 14.8443 -77.2061 104.129
923 8.99718 17.9529 1.4 15.8377 -56.0553 -154.26
924 9.99718 17.9529 1.4 16.8319 -57.86 133.36
925 10.9972 17.9529 1.4 17.8268 -65.9606 163.929
926 11.9972 17.9529 1.4 18.8222 -70.3073 -98.2164
927 12.9972 17.9529 1.4 19.8181 -73.8481 -148.301
928 13.9972 17.9529 1.4 20.8144 -81.0287 173.27
929 14.9972 17.9529 1.4 21.811 -82.7711 143.263
930 15.9972 17.9529 1.4 22.8079 -77.9092 -94.2613
931 16.9972 17.9529 1.4 23.805 -81.3232 -111.728
932 17.9972 17.9529 1.4 24.8024 -74.9144 9.58764
933 18.9972 17.9529 1.4 25.8 -80.7587 175.325
934 19.9972 17.9529 1.4 26.7978 -79.9583 -107.563
935 20.9972 17.9529 1.4 27.7957 -76.6593 117.611
936 21.9972 17.9529 1.4 28.7938 -78.4085 126.946
937 22.9972 17.9529 1.4 29.792 -77.0571 148.963
938 23.9972 17.9529 1.4 30.7903 -77.6994 -179.527
939 24.9972 17.9529 1.4 31.7888 -81.9895 21.3463
940 25.9972 17.9529 1.4 32.7873 -81.4935 -81.9348
941 26.9972 17.9529 1.4 33.7859 -91.2232 120.297
942 27.9972 17.9529 1.4 34.7846 -75.7355 -161.387
943 28.9972 17.9529 1.4 35.7833 -72.3918 123.769
944 29.9972 17.9529 1.4 36.7822 -99.0069 -97.535
945 -28.0028 18.9529 1.4 21.4372 -81.706 61.2344
946 -27.0028 18.9529 1.4 20.4459 -81.981 71.6637
947 -26.0028 18.9529 1.4 19.4555 -86.203 -110.458
948 -25.0028 18.9529 1.4 18.4661 -88.2041 108.719
949 -24.0028 18.9529 1.4 17.4779 -78.229 -65.5755
950 -23.0028 18.9529 1.4 16.4911 -71.3201 176.81
951 -22.0028 18.9529 1.4 15.5061 -75.248 87.5295
952 -21.0028 18.9529 1.4 14.5231 -84.5492 103.585
953 -20.0028 18.9529 1.4 13.5425 -59.9488 72.391
954 -19.0028 18.9529 1.4 12.5651 -59.8277 150.481
955 -18.0028 18.9529 1.4 11.5914 -52.5692 105.784
956 -17.0028 18.9529 1.4 10.6227 -49.6415 87.3073
957 -16.0028 18.9529 1.4 9.66038 -55.9918 79.1104
958 -15.0028 18.9529 1.4 8.70653 -55.9137 42.908
959 -14.0028 18.9529 1.4 7.7643 -55.2732 -50.1024
960 -13.0028 18.9529 1.4 6.8385 -47.7387 -37.8869
961 -12.0028 18.9529 1.4 5.93681 -47.4434 54.1729
962 -11.0028 18.9529 1.4 5.07213 -51.7454 105.995
963 -10.0028 18.9529 1.4 4.26699 -43.3413 31.5772
964 -9.00282 18.9529 1.4 3.56201 -44.643 8.13805
965 -8.00282 18.9529 1.4 3.02797 -55.1965 -6.57325
966 -7.00282 18.9529 1.4 2.76574 -39.8372 104.398
967 -6.00282 18.9529 1.4 2.85133 -48.8653 169.818
968 -5.00282 18.9529 1.4 3.25742 -47.1392 56.5556
969 -4.00282 18.9529 1.4 3.88478 -44.5733 43.2238
970 -3.00282 18.9529 1.4 4.64459 -57.9698 -1.72678
971 -2.00282 18.9529 1.4 5.48205 -57.2417 103.819
972 -1.00282 18.9529 1.4 6.3666 -52.9503 -175.038
973 -0.00282 18.9529 1.4 7.2811 -58.6349 109.777
974 0.99718 18.9529 1.4 8.21554 -49.2448 168.749
975 1.99718 18.9529 1.4 9.16383 -53.5724 -118.674
976 2.99718 18.9529 1.4 10.1221 -46.1277 -90.7478
977 3.99718 18.9529 1.4 11.0877 -56.7266 -87.9232
978 4.99718 18.9529 1.4 12.0589 -59.8098 -48.9894
979 5.99718 18.9529 1.4 13.0345 -52.4703 174.608
980 6.99718 18.9529 1.4 14.0135 -58.3108 -175.664
981 7.99718 18.9529 1.4 14.9953 -62.0329 175.793
982 8.99718 18.9529 1.4 15.9794 -78.1405 125.858
983 9.99718 18.9529 1.4 16.9653 -63.1202 -11.887
984 10.9972 18.9529 1.4 17.9528 -68.9883 -105.169
985 11.9972 18.9529 1.4 18.9416 -72.4204 -5.73767
986 12.9972 18.9529 1.4 19.9315 -70.0136 101.062
987 13.9972 18.9529 1.4 20.9223 -67.9203 106.247
988 14.9972 18.9529 1.4 21.914 -70.9285 153.441
989 15.9972 18.9529 1.4 22.9065 -73.4118 79.4094
990 16.9972 18.9529 1.4 23.8995 -73.8317 -22.3242
991 17.9972 18.9529 1.4 24.8931 -73.1912 -90.7035
992 18.9972 18.9529 1.4 25.8872 -72.9467 175.556
993 19.9972 18.9529 1.4 26.8818 -76.0819 -36.6144
994 20.9972 18.9529 1.4 27.8767 -83.1257 149.408
995 21.9972 18.9529 1.4 28.872 -79.3056 -77.9122
996 22.9972 18.9529 1.4 29.8676 -83.2602 -22.2057
997 23.9972 18.9529 1.4 30.8634 -74.9839 -45.6367
998 24.9972 18.9529 1.4 31.8596 -81.3076 67.1259
999 25.9972 18.9529 1.4 32.8559 -81.0736 150.612
1000 26.9972 18.9529 1.4 33.8525 -78.7571 104.026
1001 27.9972 18.9529 1.4 34.8493 -82.0797 154.337
1002 28.9972 18.9529 1.4 35.8463 -90.8447 135.547
1003 29.9972 18.9529 1.4 36.8434 -78.7109 -93.1389
1004 -28.0028 19.9529 1.4 21.5885 -90.8008 -51.4141
1005 -27.0028 19.9529 1.4 20.6044 -83.5892 111.9
1006 -26.0028 19.9529 1.4 19.622 -91.7133 -166.788
1007 -25.0028 19.9529 1.4 18.6414 -76.2313 58.9463
1008 -24.0028 19.9529 1.4 17.6631 -75.2521 -36.6821
1009 -23.0028 19.9529 1.4 16.6873 -97.592 146.805
1010 -22.0028 19.9529 1.4 15.7145 -81.6383 -136.747
1011 -21.0028 19.9529 1.4 14.7454 -91.6045 164.99
1012 -20.0028 19.9529 1.4 13.7807 -57.1904 168.14
1013 -19.0028 19.9529 1.4 12.8214 -56.796 1.80297
1014 -18.0028 19.9529 1.4 11.8688 -56.8457 46.1724
1015 -17.0028 19.9529 1.4 10.9247 -50.7523 -0.207202
1016 -16.0028 19.9529 1.4 9.99149 -51.6748 -107.938
1017 -15.0028 19.9529 1.4 9.07252 -48.8311 90.357
1018 -14.0028 19.9529 1.4 8.1726 -67.1729 132.924
1019 -13.0028 19.9529 1.4 7.29877 -49.0516 48.2359
1020 -12.0028 19.9529 1.4 6.46164 -53.6168 36.3232
1021 -11.0028 19.9529 1.4 5.67746 -48.3823 -119.464
1022 -10.0028 19.9529 1.4 4.97134 -63.4121 -144.917
1023 -9.00282 19.9529 1.4 4.38121 -56.1312 -99.8567
1024 -8.00282 19.9529 1.4 3.95925 -58.2005 -53.0611
1025 -7.00282 19.9529 1.4 3.7625 -53.0176 86.6773
1026 -6.00282 19.9529 1.4 3.82585 -52.3521 -137.392
1027 -5.00282 19.9529 1.4 4.13737 -55.292 -42.6157
1028 -4.00282 19.9529 1.4 4.64742 -51.7258 -18.1849
1029 -3.00282 19.9529 1.4 5.29899 -46.75 -86.144
1030 -2.00282 19.9529 1.4 6.04649 -51.0015 121.732
1031 -1.00282 19.9529 1.4 6.85862 -50.4757 -134.893
1032 -0.00282 19.9529 1.4 7.71501 -53.9562 168.565
1033 0.99718 19.9529 1.4 8.60245 -61.2419 -160.911
1034 1.99718 19.9529 1.4 9.51225 -49.5365 133.079
1035 2.99718 19.9529 1.4 10.4386 -47.5658 140.151
1036 3.99718 19.9529 1.4 11.3774 -58.3508 117.233
1037 4.99718 19.9529 1.4 12.3258 -65.7419 49.6741
1038 5.99718 19.9529 1.4 13.2818 -51.9374 -55.4276
1039 6.99718 19.9529 1.4 14.2438 -57.5419 -7.77395
1040 7.99718 19.9529 1.4 15.2108 -60.5291 1.37223
1041 8.99718 19.9529 1.4 16.1817 -64.4608 109.01
1042 9.99718 19.9529 1.4 17.156 -65.0875 -80.473
1043 10.9972 19.9529 1.4 18.1331 -77.5486 -105.145
1044 11.9972 19.9529 1.4 19.1126 -68.7094 36.6856
1045 12.9972 19.9529 1.4 20.094 -72.6765 -156.754
1046 13.9972 19.9529 1.4 21.0773 -73.6382 -80.188
1047 14.9972 19.9529 1.4 22.062 -79.8363 -29.1732
1048 15.9972 19.9529 1.4 23.0481 -66.2086 -18.6204
1049 16.9972 19.9529 1.4 24.0353 -79.0752 23.8771
1050 17.9972 19.9529 1.4 25.0235 -73.1779 -77.7484
1051 18.9972 19.9529 1.4 26.0126 -77.2327 176.135
1052 19.9972 19.9529 1.4 27.0025 -75.091 -37.1885
1053 20.9972 19.9529 1.4 27.9932 -90.5225 152.231
1054 21.9972 19.9529 1.4 28.9844 -79.0137 -93.7803
1055 22.9972 19.9529 1.4 29.9763 -72.5409 87.5112
1056 23.9972 19.9529 1.4 30.9687 -80.256 -174.842
1057 24.9972 19.9529 1.4 31.9615 -82.8863 -156.18
1058 25.9972 19.9529 1.4 32.9548 -73.587 -102.972
1059 26.9972 19.9529 1.4 33.9485 -74.7693 -46.3703
1060 27.9972 19.9529 1.4 34.9425 -84.4755 -132.083
1061 28.9972 19.9529 1.4 35.9369 -84.5566 -55.8035
1062 29.9972 19.9529 1.4 36.9316 -80.2765 -171.275
