#Rx
# X(m), Y(m), Z(m), Distance(m), Power (dBm) Phase (deg)
1 -28.0028 2.95289 1.4 25.0488 -91.5218 -95.6476
2 -27.2528 2.95289 1.4 24.4155 -90.8418 -100.94
3 -26.5028 2.95289 1.4 23.7889 -95.6887 -78.5395
4 -25.7528 2.95289 1.4 23.1697 -90.6966 39.2113
5 -25.0028 2.95289 1.4 22.5584 -95.8578 -114.462
6 -24.2528 2.95289 1.4 21.9558 -99.7228 114.105
7 -23.5028 2.95289 1.4 21.3625 -109.918 -120.152
8 -22.7528 2.95289 1.4 20.7793 -111.438 -69.1739
9 -22.0028 2.95289 1.4 20.2071 -93.0834 -105.173
10 -21.2528 2.95289 1.4 19.6468 -122.57 124.421
11 -20.5028 2.95289 1.4 19.0997 -99.1287 74.4543
12 -19.7528 2.95289 1.4 18.5666 -82.6493 141.383
13 -19.0028 2.95289 1.4 18.049 -83.0395 149.075
14 -18.2528 2.95289 1.4 17.5482 -107.699 104.126
15 -17.5028 2.95289 1.4 17.0657 -96.9655 -135.897
16 -16.7528 2.95289 1.4 16.6031 -71.0345 13.1724
17 -16.0028 2.95289 1.4 16.162 -70.6136 -3.32115
18 -15.2528 2.95289 1.4 15.7443 -79.3107 -158.067
19 -14.5028 2.95289 1.4 15.3519 -68.8468 -166.915
20 -13.7528 2.95289 1.4 14.9868 -70.388 -55.8822
21 -13.0028 2.95289 1.4 14.651 -67.8534 -81.9986
22 -12.2528 2.95289 1.4 14.3466 -69.1568 164.571
23 -11.5028 2.95289 1.4 14.0756 -66.4466 -95.7086
24 -10.7528 2.95289 1.4 13.84 -72.315 54.8706
25 -10.0028 2.95289 1.4 13.6416 -64.7901 -1.13843
26 -9.25282 2.95289 1.4 13.4821 -78.3986 10.2301
27 -8.50282 2.95289 1.4 13.3628 -72.9878 85.3918
28 -7.75282 2.95289 1.4 13.2849 -61.0089 -104.836
29 -7.00282 2.95289 1.4 13.249 -51.8992 16.3086
30 -6.25282 2.95289 1.4 13.2555 -50.3085 63.3738
31 -5.50282 2.95289 1.4 13.3044 -58.4098 -112.711
32 -4.75282 2.95289 1.4 13.3952 -53.4189 148.666
33 -4.00282 2.95289 1.4 13.527 -62.0719 61.2899
34 -3.25282 2.95289 1.4 13.6986 -60.5149 80.1865
35 -2.50282 2.95289 1.4 13.9086 -58.0384 -30.1723
36 -1.75282 2.95289 1.4 14.1553 -58.8673 139.255
37 -1.00282 2.95289 1.4 14.4368 -63.9461 170.375
38 -0.25282 2.95289 1.4 14.7511 -61.1165 -156.063
39 0.49718 2.95289 1.4 15.0961 -68.883 37.2073
40 1.24718 2.95289 1.4 15.4698 -65.7242 113.04
41 1.99718 2.95289 1.4 15.8702 -68.2714 -159.057
42 2.74718 2.95289 1.4 16.2953 -62.5654 -118.13
43 3.49718 2.95289 1.4 16.7432 -79.8265 -135.379
44 4.24718 2.95289 1.4 17.2121 -63.6169 -154.269
45 4.99718 2.95289 1.4 17.7004 -65.2018 119.614
46 5.74718 2.95289 1.4 18.2065 -60.863 68.7893
47 6.49718 2.95289 1.4 18.729 -68.8935 -88.1578
48 7.24718 2.95289 1.4 19.2665 -63.3285 163.17
49 7.99718 2.95289 1.4 19.8178 -68.4554 -77.9209
50 8.74718 2.95289 1.4 20.3819 -60.3005 40.6312
51 9.49718 2.95289 1.4 20.9575 -64.4052 142.753
52 10.2472 2.95289 1.4 21.5439 -83.5396 105.837
53 10.9972 2.95289 1.4 22.1402 -67.5096 -154.975
54 11.7472 2.95289 1.4 22.7456 -74.468 -70.3533
55 12.4972 2.95289 1.4 23.3594 -71.9675 -101.392
56 13.2472 2.95289 1.4 23.9809 -66.4142 -156.654
57 13.9972 2.95289 1.4 24.6096 -66.6165 163.924
58 14.7472 2.95289 1.4 25.2449 -78.8556 -3.48341
59 15.4972 2.95289 1.4 25.8863 -72.3821 -135.398
60 16.2472 2.95289 1.4 26.5335 -76.4206 -156.694
61 16.9972 2.95289 1.4 27.1859 -74.5661 -57.7154
62 17.7472 2.95289 1.4 27.8433 -78.2572 -116.583
63 18.4972 2.95289 1.4 28.5052 -84.4401 115.724
64 19.2472 2.95289 1.4 29.1714 -72.0219 -110.386
65 19.9972 2.95289 1.4 29.8415 -81.8268 -179.156
66 20.7472 2.95289 1.4 30.5154 -75.7128 -144.195
67 21.4972 2.95289 1.4 31.1927 -81.3398 36.0791
68 22.2472 2.95289 1.4 31.8733 -87.125 -154.666
69 22.9972 2.95289 1.4 32.557 -80.0479 75.0137
70 23.7472 2.95289 1.4 33.2435 -95.5889 -106.119
71 24.4972 2.95289 1.4 33.9327 -95.2735 -138.787
72 25.2472 2.95289 1.4 34.6244 -89.6601 100.057
73 25.9972 2.95289 1.4 35.3186 -76.0748 112.139
74 26.7472 2.95289 1.4 36.0149 -79.1774 -4.13834
75 27.4972 2.95289 1.4 36.7134 -86.3322 20.5933
76 28.2472 2.95289 1.4 37.4138 -92.2738 169.733
77 28.9972 2.95289 1.4 38.1162 -80.3671 -171.21
78 29.7472 2.95289 1.4 38.8203 -81.804 161.521
79 30.4972 2.95289 1.4 39.5261 -83.2274 152.382
80 -28.0028 3.70289 1.4 24.6604 -95.1732 165.949
81 -27.2528 3.70289 1.4 24.0168 -87.3282 -63.9659
82 -26.5028 3.70289 1.4 23.3796 -91.8317 -163.832
83 -25.7528 3.70289 1.4 22.7492 -93.1148 -127.758
84 -25.0028 3.70289 1.4 22.1264 -89.0138 170.9
85 -24.2528 3.70289 1.4 21.5116 -99.7963 176.757
86 -23.5028 3.70289 1.4 20.9057 -88.8801 85.9947
87 -22.7528 3.70289 1.4 20.3094 -99.86 42.334
88 -22.0028 3.70289 1.4 19.7236 -106.476 14.6407
89 -21.2528 3.70289 1.4 19.1492 -100.064 4.74168
90 -20.5028 3.70289 1.4 18.5873 -91.281 57.4184
91 -19.7528 3.70289 1.4 18.0392 -85.886 150.604
92 -19.0028 3.70289 1.4 17.506 -88.0839 13.9217
93 -18.2528 3.70289 1.4 16.9892 -80.2945 28.853
94 -17.5028 3.70289 1.4 16.4904 -90.3733 -140.157
95 -16.7528 3.70289 1.4 16.0111 -78.2823 129.163
96 -16.0028 3.70289 1.4 15.5532 -78.0625 -0.353264
97 -15.2528 3.70289 1.4 15.1187 -73.4715 102.987
98 -14.5028 3.70289 1.4 14.7097 -79.9272 -46.14
99 -13.7528 3.70289 1.4 14.3282 -69.938 74.6993
100 -13.0028 3.70289 1.4 13.9766 -74.1822 -34.9842
101 -12.2528 3.70289 1.4 13.6572 -65.5131 104.048
102 -11.5028 3.70289 1.4 13.3722 -72.6124 -101.188
103 -10.7528 3.70289 1.4 13.124 -60.0322 -20.623
104 -10.0028 3.70289 1.4 12.9146 -63.6565 -2.93565
105 -9.25282 3.70289 1.4 12.746 -60.0857 89.8436
106 -8.50282 3.70289 1.4 12.6198 -63.4698 173.181
107 -7.75282 3.70289 1.4 12.5372 -54.2655 -57.5508
108 -7.00282 3.70289 1.4 12.4992 -66.5031 -92.7247
109 -6.25282 3.70289 1.4 12.5061 -52.1849 81.3805
110 -5.50282 3.70289 1.4 12.5579 -52.3008 67.1699
111 -4.75282 3.70289 1.4 12.654 -48.5568 157.308
112 -4.00282 3.70289 1.4 12.7934 -68.7965 -144.117
113 -3.25282 3.70289 1.4 12.9748 -61.1473 -90.6314
114 -2.50282 3.70289 1.4 13.1963 -72.6294 -106.028
115 -1.75282 3.70289 1.4 13.4561 -64.0572 139.88
116 -1.00282 3.70289 1.4 13.7519 -63.338 -109.078
117 -0.25282 3.70289 1.4 14.0814 -57.6599 -72.9062
118 0.49718 3.70289 1.4 14.4425 -73.6596 180
119 1.24718 3.70289 1.4 14.8327 -60.3882 -128.324
120 1.99718 3.70289 1.4 15.2498 -57.6873 13.6001
121 2.74718 3.70289 1.4 15.6917 -63.3502 92.7939
122 3.49718 3.70289 1.4 16.1563 -68.4137 160.689
123 4.24718 3.70289 1.4 16.6418 -66.54 -11.6934
124 4.99718 3.70289 1.4 17.1464 -62.5152 -48.0388
125 5.74718 3.70289 1.4 17.6684 -65.3064 163.742
126 6.49718 3.70289 1.4 18.2063 -61.6427 -43.2718
127 7.24718 3.70289 1.4 18.7588 -60.2666 134.727
128 7.99718 3.70289 1.4 19.3246 -61.6866 -44.4093
129 8.74718 3.70289 1.4 19.9026 -66.985 -45.0755
130 9.49718 3.70289 1.4 20.4917 -64.0334 28.0875
131 10.2472 3.70289 1.4 21.0911 -68.703 89.0778
132 10.9972 3.70289 1.4 21.6998 -71.5346 83.6709
133 11.7472 3.70289 1.4 22.3171 -70.2839 66.6745
134 12.4972 3.70289 1.4 22.9424 -68.365 43.4104
135 13.2472 3.70289 1.4 23.5749 -66.7684 -68.5011
136 13.9972 3.70289 1.4 24.2141 -68.7824 -172.887
137 14.7472 3.70289 1.4 24.8596 -66.8443 43.4076
138 15.4972 3.70289 1.4 25.5107 -79.213 -0.96071
139 16.2472 3.70289 1.4 26.1671 -76.1848 43.176
140 16.9972 3.70289 1.4 26.8285 -76.8932 82.2977
141 17.7472 3.70289 1.4 27.4944 -71.351 98.6546
142 18.4972 3.70289 1.4 28.1645 -76.3393 120.294
143 19.2472 3.70289 1.4 28.8385 -83.8058 -107.795
144 19.9972 3.70289 1.4 29.5162 -78.3717 98.0932
145 20.7472 3.70289 1.4 30.1974 -75.0573 112.034
146 21.4972 3.70289 1.4 30.8817 -76.2176 -23.4975
147 22.2472 3.70289 1.4 31.569 -93.4511 -119.743
148 22.9972 3.70289 1.4 32.2591 -95.8439 166.605
149 23.7472 3.70289 1.4 32.9518 -85.808 -41.3721
150 24.4972 3.70289 1.4 33.647 -97.9101 -53.6194
151 25.2472 3.70289 1.4 34.3445 -81.7275 104.597
152 25.9972 3.70289 1.4 35.0442 -86.9698 -91.1142
153 26.7472 3.70289 1.4 35.7459 -82.9837 31.8596
154 27.4972 3.70289 1.4 36.4495 -90.0798 -135.853
155 28.2472 3.70289 1.4 37.1549 -80.3651 135.083
156 28.9972 3.70289 1.4 37.8621 -88.1289 -37.3703
157 29.7472 3.70289 1.4 38.5708 -77.2177 -133.622
158 30.4972 3.70289 1.4 39.2811 -84.9828 179.941
159 -28.0028 4.45289 1.4 24.2889 -94.3687 55.0046
160 -27.2528 4.45289 1.4 23.6352 -89.2394 45.2617
161 -26.5028 4.45289 1.4 22.9875 -89.1548 -3.69136
162 -25.7528 4.45289 1.4 22.3461 -89.7466 74.3272
163 -25.0028 4.45289 1.4 21.7116 -91.0497 61.7478
164 -24.2528 4.45289 1.4 21.0848 -101.507 22.643
165 -23.5028 4.45289 1.4 20.4662 -97.0145 -33.9111
166 -22.7528 4.45289 1.4 19.8567 -90.7728 172.183
167 -22.0028 4.45289 1.4 19.2571 -88.5999 -48.5057
168 -21.2528 4.45289 1.4 18.6684 -102.713 -89.8471
169 -20.5028 4.45289 1.4 18.0916 -93.1434 47.8651
170 -19.7528 4.45289 1.4 17.528 -83.9129 139.374
171 -19.0028 4.45289 1.4 16.9788 -91.251 147.346
172 -18.2528 4.45289 1.4 16.4454 -89.3023 0.876643
173 -17.5028 4.45289 1.4 15.9295 -80.003 -106.895
174 -16.7528 4.45289 1.4 15.4328 -66.0778 -6.47178
175 -16.0028 4.45289 1.4 14.9573 -70.6638 -53.1847
176 -15.2528 4.45289 1.4 14.5049 -66.0619 177.165
177 -14.5028 4.45289 1.4 14.0781 -79.2866 -64.229
178 -13.7528 4.45289 1.4 13.679 -74.3898 25.9618
179 -13.0028 4.45289 1.4 13.3102 -72.4357 26.4358
180 -12.2528 4.45289 1.4 12.9744 -69.2429 149.565
181 -11.5028 4.45289 1.4 12.6741 -68.2745 -143.959
182 -10.7528 4.45289 1.4 12.412 -67.0556 -158.736
183 -10.0028 4.45289 1.4 12.1904 -64.3515 7.31
184 -9.25282 4.45289 1.4 12.0116 -66.9181 156.102
185 -8.50282 4.45289 1.4 11.8775 -66.6985 -171.549
186 -7.75282 4.45289 1.4 11.7898 -57.8682 6.15201
187 -7.00282 4.45289 1.4 11.7493 -53.9888 83.2234
188 -6.25282 4.45289 1.4 11.7567 -59.1691 119.711
189 -5.50282 4.45289 1.4 11.8118 -53.0729 -4.7409
190 -4.75282 4.45289 1.4 11.9139 -63.3877 -97.2232
191 -4.00282 4.45289 1.4 12.0619 -64.4363 70.9457
192 -3.25282 4.45289 1.4 12.2541 -55.8523 5.47797
193 -2.50282 4.45289 1.4 12.4884 -65.3373 -91.8839
194 -1.75282 4.45289 1.4 12.7626 -55.4937 -179.458
195 -1.00282 4.45289 1.4 13.0741 -55.0164 6.69023
196 -0.25282 4.45289 1.4 13.4203 -62.2332 -70.8719
197 0.49718 4.45289 1.4 13.7986 -73.8572 48.4566
198 1.24718 4.45289 1.4 14.2065 -61.2942 -97.1018
199 1.99718 4.45289 1.4 14.6415 -65.3254 120.328
200 2.74718 4.45289 1.4 15.1012 -67.7379 -62.163
201 3.49718 4.45289 1.4 15.5835 -66.5466 -109.48
202 4.24718 4.45289 1.4 16.0863 -64.9546 -120.184
203 4.99718 4.45289 1.4 16.6077 -60.9907 29.4136
204 5.74718 4.45289 1.4 17.1461 -64.9684 -149.738
205 6.49718 4.45289 1.4 17.6999 -63.7213 33.7432
206 7.24718 4.45289 1.4 18.2677 -64.9811 89.4611
207 7.99718 4.45289 1.4 18.8483 -60.2668 -129.926
208 8.74718 4.45289 1.4 19.4404 -65.1722 -125.354
209 9.49718 4.45289 1.4 20.0432 -63.2602 -64.1496
210 10.2472 4.45289 1.4 20.6556 -64.257 -68.484
211 10.9972 4.45289 1.4 21.2767 -64.6731 -85.7035
212 11.7472 4.45289 1.4 21.906 -65.7858 -156.674
213 12.4972 4.45289 1.4 22.5426 -67.0388 115.982
214 13.2472 4.45289 1.4 23.1861 -72.9602 33.1606
215 13.9972 4.45289 1.4 23.8357 -72.533 -113.599
216 14.7472 4.45289 1.4 24.4911 -77.0397 37.0123
217 15.4972 4.45289 1.4 25.1518 -79.6909 -73.3025
218 16.2472 4.45289 1.4 25.8174 -84.9906 -134.851
219 16.9972 4.45289 1.4 26.4874 -73.1837 89.3145
220 17.7472 4.45289 1.4 27.1617 -85.8115 50.0717
221 18.4972 4.45289 1.4 27.8398 -71.7541 -48.2204
222 19.2472 4.45289 1.4 28.5215 -75.4374 -44.6729
223 19.9972 4.45289 1.4 29.2066 -84.6206 -134.306
224 20.7472 4.45289 1.4 29.8948 -76.3835 -29.1245
225 21.4972 4.45289 1.4 30.5859 -70.034 -76.281
226 22.2472 4.45289 1.4 31.2797 -78.3215 -143.647
227 22.9972 4.45289 1.4 31.9761 -81.4251 160.972
228 23.7472 4.45289 1.4 32.6748 -72.5985 -133.142
229 24.4972 4.45289 1.4 33.3757 -84.6632 -169.672
230 25.2472 4.45289 1.4 34.0788 -91.846 179.405
231 25.9972 4.45289 1.4 34.7838 -87.5784 95.4925
232 26.7472 4.45289 1.4 35.4906 -83.8776 -93.2395
233 27.4972 4.45289 1.4 36.1992 -81.534 -34.9241
234 28.2472 4.45289 1.4 36.9094 -84.219 -10.3164
235 28.9972 4.45289 1.4 37.6212 -87.775 46.6606
236 29.7472 4.45289 1.4 38.3344 -78.6944 19.1412
237 30.4972 4.45289 1.4 39.049 -77.1724 61.5545
238 -28.0028 5.20289 1.4 23.9352 -90.5869 14.6043
239 -27.2528 5.20289 1.4 23.2716 -86.6819 -176.234
240 -26.5028 5.20289 1.4 22.6134 -85.7775 -80.3329
241 -25.7528 5.20289 1.4 21.9611 -82.9872 -41.7734
242 -25.0028 5.20289 1.4 21.3152 -84.9982 -61.8487
243 -24.2528 5.20289 1.4 20.6763 -102.315 -137.388
244 -23.5028 5.20289 1.4 20.0451 -94.9017 145.01
245 -22.7528 5.20289 1.4 19.4224 -94.898 -48.4761
246 -22.0028 5.20289 1.4 18.809 -89.3584 -135.027
247 -21.2528 5.20289 1.4 18.2058 -83.4885 103.572
248 -20.5028 5.20289 1.4 17.6139 -86.5325 56.1402
249 -19.7528 5.20289 1.4 17.0345 -89.2618 12.4911
250 -19.0028 5.20289 1.4 16.4688 -93.6898 87.7671
251 -18.2528 5.20289 1.4 15.9184 -82.9155 75.1474
252 -17.5028 5.20289 1.4 15.3848 -88.6169 -175.785
253 -16.7528 5.20289 1.4 14.8699 -63.9448 -151.233
254 -16.0028 5.20289 1.4 14.3758 -66.9477 -144.193
255 -15.2528 5.20289 1.4 13.9045 -67.7447 176.595
256 -14.5028 5.20289 1.4 13.4586 -69.8491 16.0646
257 -13.7528 5.20289 1.4 13.0406 -66.9301 123.381
258 -13.0028 5.20289 1.4 12.6533 -71.081 56.5788
259 -12.2528 5.20289 1.4 12.2995 -64.0563 90.55
260 -11.5028 5.20289 1.4 11.9823 -65.8643 142.601
261 -10.7528 5.20289 1.4 11.7047 -76.0258 75.35
262 -10.0028 5.20289 1.4 11.4694 -73.2161 -0.194598
263 -9.25282 5.20289 1.4 11.2792 -63.9202 51.7665
264 -8.50282 5.20289 1.4 11.1364 -57.829 -61.8186
265 -7.75282 5.20289 1.4 11.0427 -61.1601 46.1995
266 -7.00282 5.20289 1.4 10.9995 -53.7741 -160.999
267 -6.25282 5.20289 1.4 11.0074 -48.8858 149.367
268 -5.50282 5.20289 1.4 11.0662 -62.0961 -117.558
269 -4.75282 5.20289 1.4 11.1751 -68.3969 -56.6002
270 -4.00282 5.20289 1.4 11.3328 -70.5091 -155.956
271 -3.25282 5.20289 1.4 11.5371 -61.8322 -36.6701
272 -2.50282 5.20289 1.4 11.7857 -62.9771 101.665
273 -1.75282 5.20289 1.4 12.0758 -61.5042 76.332
274 -1.00282 5.20289 1.4 12.4046 -55.1125 50.2796
275 -0.25282 5.20289 1.4 12.769 -68.7875 135.839
276 0.49718 5.20289 1.4 13.1661 -65.037 89.4806
277 1.24718 5.20289 1.4 13.5929 -60.667 -123.498
278 1.99718 5.20289 1.4 14.0469 -61.6816 -155.072
279 2.74718 5.20289 1.4 14.5255 -61.4905 57.8557
280 3.49718 5.20289 1.4 15.0262 -67.1999 46.8035
281 4.24718 5.20289 1.4 15.547 -64.0592 -42.7367
282 4.99718 5.20289 1.4 16.086 -61.3302 151.4
283 5.74718 5.20289 1.4 16.6413 -66.3294 -65.9606
284 6.49718 5.20289 1.4 17.2113 -68.6432 32.0441
285 7.24718 5.20289 1.4 17.7947 -64.8615 90.2517
286 7.99718 5.20289 1.4 18.3902 -64.9266 98.027
287 8.74718 5.20289 1.4 18.9967 -68.1494 170.485
288 9.49718 5.20289 1.4 19.613 -65.3055 74.0782
289 10.2472 5.20289 1.4 20.2384 -63.0327 84.2702
290 10.9972 5.20289 1.4 20.8721 -71.4262 4.50475
291 11.7472 5.20289 1.4 21.5132 -82.8911 176.395
292 12.4972 5.20289 1.4 22.1611 -82.0788 -36.5671
293 13.2472 5.20289 1.4 22.8153 -76.8014 -177.704
294 13.9972 5.20289 1.4 23.4752 -95.7766 -178.847
295 14.7472 5.20289 1.4 24.1404 -76.888 139.75
296 15.4972 5.20289 1.4 24.8104 -80.9108 94.4291
297 16.2472 5.20289 1.4 25.4849 -86.6822 135.244
298 16.9972 5.20289 1.4 26.1635 -80.8234 -9.98227
299 17.7472 5.20289 1.4 26.8459 -81.0533 6.82025
300 18.4972 5.20289 1.4 27.5318 -74.529 130.849
301 19.2472 5.20289 1.4 28.2209 -77.0552 -159.585
302 19.9972 5.20289 1.4 28.9131 -76.6078 -161.785
303 20.7472 5.20289 1.4 29.6081 -79.9407 41.5031
304 21.4972 5.20289 1.4 30.3058 -87.8602 129.723
305 22.2472 5.20289 1.4 31.0059 -74.9879 158.708
306 22.9972 5.20289 1.4 31.7082 -76.6239 157.015
307 23.7472 5.20289 1.4 32.4127 -91.0022 -24.2353
308 24.4972 5.20289 1.4 33.1192 -85.3209 11.077
309 25.2472 5.20289 1.4 33.8276 -77.7636 168.693
310 25.9972 5.20289 1.4 34.5377 -81.3559 30.7239
311 26.7472 5.20289 1.4 35.2495 -74.1466 36.2679
312 27.4972 5.20289 1.4 35.9628 -92.3803 21.1603
313 28.2472 5.20289 1.4 36.6776 -86.4246 -167.151
314 28.9972 5.20289 1.4 37.3938 -85.7723 -158.363
315 29.7472 5.20289 1.4 38.1113 -76.9337 -179.132
316 30.4972 5.20289 1.4 38.83 -75.3708 -164.102
317 -28.0028 5.95289 1.4 23.6001 -89.7754 108.68
318 -27.2528 5.95289 1.4 22.9267 -85.0738 144.465
319 -26.5028 5.95289 1.4 22.2583 -90.7279 -153.82
320 -25.7528 5.95289 1.4 21.5953 -84.9212 -131.458
321 -25.0028 5.95289 1.4 20.9381 -90.8733 10.8822
322 -24.2528 5.95289 1.4 20.2874 -99.6655 -90.3839
323 -23.5028 5.95289 1.4 19.6437 -97.3565 24.9845
324 -22.7528 5.95289 1.4 19.0079 -92.9943 -49.1126
325 -22.0028 5.95289 1.4 18.3806 -80.4637 -1.80913
326 -21.2528 5.95289 1.4 17.7629 -83.6417 121.051
327 -20.5028 5.95289 1.4 17.1557 -86.0175 -108.235
328 -19.7528 5.95289 1.4 16.5602 -86.3719 114.66
329 -19.0028 5.95289 1.4 15.9778 -77.2699 -112.632
330 -18.2528 5.95289 1.4 15.4098 -82.4257 8.11051
331 -17.5028 5.95289 1.4 14.858 -86.941 161.295
332 -16.7528 5.95289 1.4 14.3242 -78.5587 -98.3327
333 -16.0028 5.95289 1.4 13.8105 -67.1533 128.531
334 -15.2528 5.95289 1.4 13.3193 -67.5432 99.5518
335 -14.5028 5.95289 1.4 12.8531 -70.3524 44.8033
336 -13.7528 5.95289 1.4 12.4147 -67.2566 149.817
337 -13.0028 5.95289 1.4 12.0072 -59.7538 -58.8932
338 -12.2528 5.95289 1.4 11.6338 -61.8119 -29.7001
339 -11.5028 5.95289 1.4 11.298 -68.8019 154.653
340 -10.7528 5.95289 1.4 11.0031 -79.3327 -138.759
341 -10.0028 5.95289 1.4 10.7525 -72.3951 68.2095
342 -9.25282 5.95289 1.4 10.5493 -63.0885 -175.309
343 -8.50282 5.95289 1.4 10.3965 -64.1235 24.1126
344 -7.75282 5.95289 1.4 10.2961 -59.0711 102.77
345 -7.00282 5.95289 1.4 10.2498 -61.2415 -161.7
346 -6.25282 5.95289 1.4 10.2582 -53.6003 -93.5171
347 -5.50282 5.95289 1.4 10.3213 -50.5023 -177.028
348 -4.75282 5.95289 1.4 10.438 -49.9271 -125.83
349 -4.00282 5.95289 1.4 10.6066 -62.2203 -29.3577
350 -3.25282 5.95289 1.4 10.8246 -61.0593 66.1125
351 -2.50282 5.95289 1.4 11.0892 -54.3336 169.667
352 -1.75282 5.95289 1.4 11.3971 -53.916 -132.184
353 -1.00282 5.95289 1.4 11.7449 -59.4157 -178.522
354 -0.25282 5.95289 1.4 12.1291 -49.7061 -160.023
355 0.49718 5.95289 1.4 12.5464 -60.1282 65.1377
356 1.24718 5.95289 1.4 12.9937 -74.5345 5.20376
357 1.99718 5.95289 1.4 13.4679 -69.9865 -0.78041
358 2.74718 5.95289 1.4 13.9663 -72.1898 -59.4761
359 3.49718 5.95289 1.4 14.4864 -62.8552 146.601
360 4.24718 5.95289 1.4 15.0259 -65.7344 31.0866
361 4.99718 5.95289 1.4 15.5829 -61.8409 160.144
362 5.74718 5.95289 1.4 16.1555 -63.8849 -88.0252
363 6.49718 5.95289 1.4 16.7421 -65.1993 -22.5866
364 7.24718 5.95289 1.4 17.3413 -64.3675 -36.169
365 7.99718 5.95289 1.4 17.9518 -71.5504 47.3849
366 8.74718 5.95289 1.4 18.5726 -59.3331 -72.3555
367 9.49718 5.95289 1.4 19.2026 -68.3408 -112.304
368 10.2472 5.95289 1.4 19.8409 -74.0771 120.155
369 10.9972 5.95289 1.4 20.4868 -66.8892 12.7838
370 11.7472 5.95289 1.4 21.1396 -68.7364 -119.385
371 12.4972 5.95289 1.4 21.7987 -74.8353 110.238
372 13.2472 5.95289 1.4 22.4634 -84.6853 156.783
373 13.9972 5.95289 1.4 23.1334 -75.203 -12.6403
374 14.7472 5.95289 1.4 23.8081 -76.2086 170.29
375 15.4972 5.95289 1.4 24.4872 -250 0
376 16.2472 5.95289 1.4 25.1704 -100.486 -115.105
377 16.9972 5.95289 1.4 25.8572 -88.184 -98.7242
378 17.7472 5.95289 1.4 26.5475 -86.9463 84.7834
379 18.4972 5.95289 1.4 27.2409 -80.3156 -140.277
380 19.2472 5.95289 1.4 27.9372 -75.6978 -67.0387
381 19.9972 5.95289 1.4 28.6363 -72.3954 -33.2169
382 20.7472 5.95289 1.4 29.3379 -73.444 2.07936
383 21.4972 5.95289 1.4 30.0418 -88.3291 -71.0474
384 22.2472 5.95289 1.4 30.7479 -84.0986 -50.1565
385 22.9972 5.95289 1.4 31.456 -75.8416 -12.396
386 23.7472 5.95289 1.4 32.166 -73.672 -35.6748
387 24.4972 5.95289 1.4 32.8778 -71.7792 -20.7492
388 25.2472 5.95289 1.4 33.5913 -78.1803 -164.22
389 25.9972 5.95289 1.4 34.3063 -80.1583 -43.5121
390 26.7472 5.95289 1.4 35.0228 -78.7564 80.8387
391 27.4972 5.95289 1.4 35.7406 -102.698 99.7177
392 28.2472 5.95289 1.4 36.4598 -82.4024 116.625
393 28.9972 5.95289 1.4 37.1801 -88.9249 -93.3749
394 29.7472 5.95289 1.4 37.9017 -77.1849 -113.785
395 30.4972 5.95289 1.4 38.6243 -77.1558 90.0577
396 -28.0028 6.70289 1.4 23.2842 -86.7137 -3.87775
397 -27.2528 6.70289 1.4 22.6015 -92.4947 128.095
398 -26.5028 6.70289 1.4 21.9232 -89.8223 1.93735
399 -25.7528 6.70289 1.4 21.2497 -83.3133 141.194
400 -25.0028 6.70289 1.4 20.5815 -85.2983 -147.919
401 -24.2528 6.70289 1.4 19.9191 -100.65 -34.2708
402 -23.5028 6.70289 1.4 19.2631 -89.7647 -177.574
403 -22.7528 6.70289 1.4 18.6143 -91.0209 -93.2165
404 -22.0028 6.70289 1.4 17.9733 -82.0808 -12.4426
405 -21.2528 6.70289 1.4 17.3411 -93.3676 -122.762
406 -20.5028 6.70289 1.4 16.7186 -75.8354 135.617
407 -19.7528 6.70289 1.4 16.1069 -85.5408 -67.8427
408 -19.0028 6.70289 1.4 15.5075 -86.3582 168.619
409 -18.2528 6.70289 1.4 14.9216 -80.5213 37.7483
410 -17.5028 6.70289 1.4 14.3511 -76.9628 118.57
411 -16.7528 6.70289 1.4 13.7977 -68.5737 -134.57
412 -16.0028 6.70289 1.4 13.2636 -81.3362 134.947
413 -15.2528 6.70289 1.4 12.7514 -63.1199 5.85267
414 -14.5028 6.70289 1.4 12.2636 -67.7179 -1.17656
415 -13.7528 6.70289 1.4 11.8033 -58.175 168.234
416 -13.0028 6.70289 1.4 11.3739 -63.6562 -111.186
417 -12.2528 6.70289 1.4 10.979 -66.0612 36.4517
418 -11.5028 6.70289 1.4 10.6225 -68.8365 138.373
419 -10.7528 6.70289 1.4 10.3083 -80.1443 -119.903
420 -10.0028 6.70289 1.4 10.0403 -69.175 53.2886
421 -9.25282 6.70289 1.4 9.82249 -70.7157 71.8627
422 -8.50282 6.70289 1.4 9.65812 -77.0955 -72.2513
423 -7.75282 6.70289 1.4 9.54999 -61.6744 126.3
424 -7.00282 6.70289 1.4 9.50002 -63.443 -31.5388
425 -6.25282 6.70289 1.4 9.50912 -57.4542 -113.763
426 -5.50282 6.70289 1.4 9.57713 -55.547 124.084
427 -4.75282 6.70289 1.4 9.70281 -51.7043 143.673
428 -4.00282 6.70289 1.4 9.88395 -60.6213 -35.0722
429 -3.25282 6.70289 1.4 10.1176 -58.9794 112.603
430 -2.50282 6.70289 1.4 10.4002 -58.1681 -87.4714
431 -1.75282 6.70289 1.4 10.7278 -54.6796 14.0706
432 -1.00282 6.70289 1.4 11.0966 -57.5156 -16.1883
433 -0.25282 6.70289 1.4 11.5025 -48.7761 -167.212
434 0.49718 6.70289 1.4 11.9418 -64.7077 31.6511
435 1.24718 6.70289 1.4 12.4108 -60.9147 -94.0505
436 1.99718 6.70289 1.4 12.9065 -60.2302 -150.149
437 2.74718 6.70289 1.4 13.4257 -60.1718 41.4815
438 3.49718 6.70289 1.4 13.966 -65.2954 -64.4182
439 4.24718 6.70289 1.4 14.5248 -65.3599 76.7443
440 4.99718 6.70289 1.4 15.1003 -67.4581 139.472
441 5.74718 6.70289 1.4 15.6905 -67.9692 -157.713
442 6.49718 6.70289 1.4 16.2939 -70.8384 -159.27
443 7.24718 6.70289 1.4 16.909 -66.0892 -147.306
444 7.99718 6.70289 1.4 17.5346 -59.0654 137.008
445 8.74718 6.70289 1.4 18.1696 -63.1496 33.9637
446 9.49718 6.70289 1.4 18.8131 -70.677 -53.974
447 10.2472 6.70289 1.4 19.4642 -70.3432 -173.373
448 10.9972 6.70289 1.4 20.1222 -68.6632 86.6259
449 11.7472 6.70289 1.4 20.7864 -67.1959 -42.7591
450 12.4972 6.70289 1.4 21.4563 -72.7867 34.2017
451 13.2472 6.70289 1.4 22.1314 -75.6716 175.342
452 13.9972 6.70289 1.4 22.8111 -70.8488 -69.0405
453 14.7472 6.70289 1.4 23.4951 -70.7928 64.3945
454 15.4972 6.70289 1.4 24.183 -83.1082 159.622
455 16.2472 6.70289 1.4 24.8745 -86.563 -144.442
456 16.9972 6.70289 1.4 25.5693 -96.5495 81.2257
457 17.7472 6.70289 1.4 26.2671 -84.6953 -17.5496
458 18.4972 6.70289 1.4 26.9677 -90.6446 48.62
459 19.2472 6.70289 1.4 27.671 -87.7981 91.2683
460 19.9972 6.70289 1.4 28.3766 -89.1725 154.529
461 20.7472 6.70289 1.4 29.0844 -74.1064 155.173
462 21.4972 6.70289 1.4 29.7943 -69.5888 -140.773
463 22.2472 6.70289 1.4 30.5061 -93.5851 -127.831
464 22.9972 6.70289 1.4 31.2197 -72.4604 -110.322
465 23.7472 6.70289 1.4 31.935 -77.562 -96.7187
466 24.4972 6.70289 1.4 32.6518 -79.9399 -27.3548
467 25.2472 6.70289 1.4 33.3701 -75.4564 62.7415
468 25.9972 6.70289 1.4 34.0898 -81.4148 -177.204
469 26.7472 6.70289 1.4 34.8107 -80.0283 -175.112
470 27.4972 6.70289 1.4 35.5329 -77.4937 -75.1092
471 28.2472 6.70289 1.4 36.2561 -76.3817 163.112
472 28.9972 6.70289 1.4 36.9805 -75.8332 176.088
473 29.7472 6.70289 1.4 37.7058 -75.7619 -98.0308
474 30.4972 6.70289 1.4 38.4321 -82.0152 -167.161
475 -28.0028 7.45289 1.4 22.9885 -77.7024 -124.606
476 -27.2528 7.45289 1.4 22.2968 -91.0033 -117.192
477 -26.5028 7.45289 1.4 21.6089 -82.6483 11.7578
478 -25.7528 7.45289 1.4 20.9253 -86.154 -127.536
479 -25.0028 7.45289 1.4 20.2464 -90.1663 -43.0246
480 -24.2528 7.45289 1.4 19.5726 -92.9688 -81.2103
481 -23.5028 7.45289 1.4 18.9047 -83.0636 137.64
482 -22.7528 7.45289 1.4 18.2431 -84.5911 -149.743
483 -22.0028 7.45289 1.4 17.5886 -101.57 40.102
484 -21.2528 7.45289 1.4 16.942 -83.0113 -21.7393
485 -20.5028 7.45289 1.4 16.3042 -79.5283 -165.542
486 -19.7528 7.45289 1.4 15.6765 -72.8739 -51.5699
487 -19.0028 7.45289 1.4 15.0599 -81.2843 113.672
488 -18.2528 7.45289 1.4 14.4559 -74.3307 0.206478
489 -17.5028 7.45289 1.4 13.8662 -83.8701 147.306
490 -16.7528 7.45289 1.4 13.2926 -66.2384 -138.224
491 -16.0028 7.45289 1.4 12.7374 -65.3659 89.3997
492 -15.2528 7.45289 1.4 12.2031 -86.0969 -149.702
493 -14.5028 7.45289 1.4 11.6924 -62.2285 -108.296
494 -13.7528 7.45289 1.4 11.2087 -56.0045 124.321
495 -13.0028 7.45289 1.4 10.7556 -64.2712 23.8021
496 -12.2528 7.45289 1.4 10.3372 -83.86 143.262
497 -11.5028 7.45289 1.4 9.95766 -71.7959 -149.627
498 -10.7528 7.45289 1.4 9.62174 -69.5227 101.571
499 -10.0028 7.45289 1.4 9.33413 -64.8097 -82.5508
500 -9.25282 7.45289 1.4 9.0994 -70.0917 168.054
501 -8.50282 7.45289 1.4 8.92172 -68.7313 -74.3942
502 -7.75282 7.45289 1.4 8.80455 -64.5463 28.2177
503 -7.00282 7.45289 1.4 8.75032 -55.1007 10.1777
504 -6.25282 7.45289 1.4 8.76021 -52.9085 -10.1392
505 -5.50282 7.45289 1.4 8.83398 -48.7648 -116.725
506 -4.75282 7.45289 1.4 8.97008 -66.5907 165.717
507 -4.00282 7.45289 1.4 9.16571 -60.5945 -35.0181
508 -3.25282 7.45289 1.4 9.41718 -67.5821 33.1692
509 -2.50282 7.45289 1.4 9.72015 -60.8816 127.957
510 -1.75282 7.45289 1.4 10.07 -55.4749 115.731
511 -1.00282 7.45289 1.4 10.462 -52.2621 27.9685
512 -0.25282 7.45289 1.4 10.8915 -68.4225 155.175
513 0.49718 7.45289 1.4 11.3544 -57.422 131.781
514 1.24718 7.45289 1.4 11.8468 -58.8043 73.3875
515 1.99718 7.45289 1.4 12.3651 -57.3724 -49.5061
516 2.74718 7.45289 1.4 12.9061 -60.4371 122.014
517 3.49718 7.45289 1.4 13.4672 -64.3948 -82.0883
518 4.24718 7.45289 1.4 14.046 -66.2234 23.3076
519 4.99718 7.45289 1.4 14.6402 -67.9633 34.285
520 5.74718 7.45289 1.4 15.2483 -66.7635 58.6619
521 6.49718 7.45289 1.4 15.8685 -64.8943 44.9835
522 7.24718 7.45289 1.4 16.4994 -60.4558 -6.59108
523 7.99718 7.45289 1.4 17.14 -68.4426 176.24
524 8.74718 7.45289 1.4 17.7891 -76.6551 103.876
525 9.49718 7.45289 1.4 18.4459 -72.8257 60.9725
526 10.2472 7.45289 1.4 19.1095 -73.0517 13.7934
527 10.9972 7.45289 1.4 19.7793 -92.1078 -174.758
528 11.7472 7.45289 1.4 20.4547 -68.8676 -151.032
529 12.4972 7.45289 1.4 21.1351 -68.9613 52.4195
530 13.2472 7.45289 1.4 21.8201 -72.6855 130.437
531 13.9972 7.45289 1.4 22.5092 -83.5489 -44.8155
532 14.7472 7.45289 1.4 23.2021 -86.5038 105.199
533 15.4972 7.45289 1.4 23.8984 -78.7955 -126.441
534 16.2472 7.45289 1.4 24.5979 -96.8745 -76.8646
535 16.9972 7.45289 1.4 25.3003 -250 0
536 17.7472 7.45289 1.4 26.0054 -85.4634 -67.9162
537 18.4972 7.45289 1.4 26.7129 -85.5484 165.806
538 19.2472 7.45289 1.4 27.4226 -80.799 18.0226
539 19.9972 7.45289 1.4 28.1345 -90.4063 -146.484
540 20.7472 7.45289 1.4 28.8482 -82.6751 -11.2064
541 21.4972 7.45289 1.4 29.5638 -73.2455 -5.87406
542 22.2472 7.45289 1.4 30.281 -71.016 93.4906
543 22.9972 7.45289 1.4 30.9998 -72.7227 120.669
544 23.7472 7.45289 1.4 31.7201 -74.5443 153.208
545 24.4972 7.45289 1.4 32.4417 -78.5218 160.693
546 25.2472 7.45289 1.4 33.1645 -72.6428 34.7398
547 25.9972 7.45289 1.4 33.8885 -84.0577 98.8572
548 26.7472 7.45289 1.4 34.6137 -81.4047 -78.3735
549 27.4972 7.45289 1.4 35.3398 -80.9025 -85.0671
550 28.2472 7.45289 1.4 36.067 -77.6504 32.0604
551 28.9972 7.45289 1.4 36.795 -72.6065 41.6647
552 29.7472 7.45289 1.4 37.524 -77.196 85.388
553 30.4972 7.45289 1.4 38.2537 -81.0615 -30.9159
554 -28.0028 8.20289 1.4 22.7138 -84.6241 -160.855
555 -27.2528 8.20289 1.4 22.0134 -78.8844 157.367
556 -26.5028 8.20289 1.4 21.3164 -76.0584 77.2252
557 -25.7528 8.20289 1.4 20.623 -78.2473 24.748
558 -25.0028 8.20289 1.4 19.9338 -106.419 3.31979
559 -24.2528 8.20289 1.4 19.2492 -88.2466 -124.994
560 -23.5028 8.20289 1.4 18.5696 -83.6555 98.7864
561 -22.7528 8.20289 1.4 17.8956 -88.3954 136.72
562 -22.0028 8.20289 1.4 17.2279 -89.0538 -177.155
563 -21.2528 8.20289 1.4 16.5672 -92.1058 -158.248
564 -20.5028 8.20289 1.4 15.9145 -82.022 38.5409
565 -19.7528 8.20289 1.4 15.2707 -93.0918 159.235
566 -19.0028 8.20289 1.4 14.637 -79.1048 -104.026
567 -18.2528 8.20289 1.4 14.0148 -87.0236 174.78
568 -17.5028 8.20289 1.4 13.4057 -80.8928 11.2904
569 -16.7528 8.20289 1.4 12.8116 -64.5888 -152.848
570 -16.0028 8.20289 1.4 12.2346 -68.853 75.6081
571 -15.2528 8.20289 1.4 11.6772 -64.5318 -14.5163
572 -14.5028 8.20289 1.4 11.1425 -83.4776 47.8518
573 -13.7528 8.20289 1.4 10.6338 -60.4881 47.6675
574 -13.0028 8.20289 1.4 10.1551 -64.1082 -8.35232
575 -12.2528 8.20289 1.4 9.7108 -61.1498 -157.299
576 -11.5028 8.20289 1.4 9.30579 -64.4078 -52.1366
577 -10.7528 8.20289 1.4 8.94543 -70.6446 160.981
578 -10.0028 8.20289 1.4 8.63532 -64.0448 107.313
579 -9.25282 8.20289 1.4 8.38104 -63.8324 -159.296
580 -8.50282 8.20289 1.4 8.18779 -74.7442 14.159
581 -7.75282 8.20289 1.4 8.05996 -77.1862 81.7704
582 -7.00282 8.20289 1.4 8.00068 -50.3833 8.0753
583 -6.25282 8.20289 1.4 8.01149 -52.182 -53.1148
584 -5.50282 8.20289 1.4 8.0921 -53.6907 -56.5195
585 -4.75282 8.20289 1.4 8.24045 -49.2929 -33.0678
586 -4.00282 8.20289 1.4 8.45299 -63.6751 98.8799
587 -3.25282 8.20289 1.4 8.72503 -65.8372 -69.9859
588 -2.50282 8.20289 1.4 9.0512 -55.3307 -140.808
589 -1.75282 8.20289 1.4 9.42588 -52.8541 -113.63
590 -1.00282 8.20289 1.4 9.84354 -55.6802 62.9425
591 -0.25282 8.20289 1.4 10.2989 -53.8607 -103.93
592 0.49718 8.20289 1.4 10.7873 -70.5716 -28.1404
593 1.24718 8.20289 1.4 11.3044 -57.5903 -177.404
594 1.99718 8.20289 1.4 11.8464 -61.921 26.0217
595 2.74718 8.20289 1.4 12.4101 -60.3196 172.098
596 3.49718 8.20289 1.4 12.9926 -67.1291 -134.868
597 4.24718 8.20289 1.4 13.5916 -65.2634 -74.9814
598 4.99718 8.20289 1.4 14.2049 -65.0389 -83.6679
599 5.74718 8.20289 1.4 14.8308 -66.957 -168.348
600 6.49718 8.20289 1.4 15.4677 -73.0322 176.697
601 7.24718 8.20289 1.4 16.1144 -73.7253 -78.7926
602 7.99718 8.20289 1.4 16.7697 -69.4051 136.709
603 8.74718 8.20289 1.4 17.4326 -70.0818 -18.5529
604 9.49718 8.20289 1.4 18.1023 -62.8996 -130.264
605 10.2472 8.20289 1.4 18.7781 -70.9204 63.4884
606 10.9972 8.20289 1.4 19.4593 -77.9838 111.727
607 11.7472 8.20289 1.4 20.1454 -76.4323 -151.044
608 12.4972 8.20289 1.4 20.8359 -68.704 -2.82096
609 13.2472 8.20289 1.4 21.5304 -70.8834 -170.18
610 13.9972 8.20289 1.4 22.2285 -74.836 -84.1965
611 14.7472 8.20289 1.4 22.9299 -73.9319 71.4176
612 15.4972 8.20289 1.4 23.6342 -92.4422 75.557
613 16.2472 8.20289 1.4 24.3413 -250 0
614 16.9972 8.20289 1.4 25.0509 -250 0
615 17.7472 8.20289 1.4 25.7628 -80.4019 79.4671
616 18.4972 8.20289 1.4 26.4768 -80.4371 175.166
617 19.2472 8.20289 1.4 27.1927 -94.7027 -90.1855
618 19.9972 8.20289 1.4 27.9104 -87.6809 22.2705
619 20.7472 8.20289 1.4 28.6298 -78.5372 11.9256
620 21.4972 8.20289 1.4 29.3507 -79.7745 -6.13274
621 22.2472 8.20289 1.4 30.073 -81.879 -169.239
622 22.9972 8.20289 1.4 30.7966 -80.0331 135.711
623 23.7472 8.20289 1.4 31.5215 -72.3307 -29.9722
624 24.4972 8.20289 1.4 32.2475 -89.5991 22.7892
625 25.2472 8.20289 1.4 32.9746 -76.2191 -67.5544
626 25.9972 8.20289 1.4 33.7027 -79.2829 -148.655
627 26.7472 8.20289 1.4 34.4318 -81.9723 70.4158
628 27.4972 8.20289 1.4 35.1617 -68.267 -159.785
629 28.2472 8.20289 1.4 35.8925 -74.4641 45.4256
630 28.9972 8.20289 1.4 36.624 -71.7125 -162.563
631 29.7472 8.20289 1.4 37.3563 -82.0903 -50.757
632 30.4972 8.20289 1.4 38.0892 -90.3138 -75.4536
633 -28.0028 8.95289 1.4 22.4607 -82.2758 -125.834
634 -27.2528 8.95289 1.4 21.7522 -74.2854 -80.3802
635 -26.5028 8.95289 1.4 21.0465 -89.5056 -37.981
636 -25.7528 8.95289 1.4 20.344 -81.2492 -98.6337
637 -25.0028 8.95289 1.4 19.645 -78.4967 -54.4402
638 -24.2528 8.95289 1.4 18.9499 -82.8502 -120.681
639 -23.5028 8.95289 1.4 18.2592 -76.9216 89.2291
640 -22.7528 8.95289 1.4 17.5733 -85.3623 51.8684
641 -22.0028 8.95289 1.4 16.8928 -94.0283 51.8322
642 -21.2528 8.95289 1.4 16.2185 -87.2248 -27.0149
643 -20.5028 8.95289 1.4 15.5512 -92.5292 -166.198
644 -19.7528 8.95289 1.4 14.8917 -76.8018 133.067
645 -19.0028 8.95289 1.4 14.2411 -83.5205 -83.9106
646 -18.2528 8.95289 1.4 13.6009 -104.868 11.324
647 -17.5028 8.95289 1.4 12.9723 -110.709 -176.598
648 -16.7528 8.95289 1.4 12.3574 -66.1913 65.016
649 -16.0028 8.95289 1.4 11.7581 -66.2426 66.8642
650 -15.2528 8.95289 1.4 11.177 -73.5953 -32.1306
651 -14.5028 8.95289 1.4 10.6171 -65.33 -132.054
652 -13.7528 8.95289 1.4 10.082 -67.26 -34.0638
653 -13.0028 8.95289 1.4 9.57572 -58.152 -35.4356
654 -12.2528 8.95289 1.4 9.10316 -61.9245 -139.823
655 -11.5028 8.95289 1.4 8.66981 -62.7847 47.4559
656 -10.7528 8.95289 1.4 8.28182 -67.9982 41.7545
657 -10.0028 8.95289 1.4 7.94585 -73.0972 164.547
658 -9.25282 8.95289 1.4 7.66874 -72.2434 -80.9952
659 -8.50282 8.95289 1.4 7.45706 -67.8696 92.8472
660 -7.75282 8.95289 1.4 7.31647 -65.3764 -117.864
661 -7.00282 8.95289 1.4 7.25112 -52.454 99.2506
662 -6.25282 8.95289 1.4 7.26304 -54.3269 82.0222
663 -5.50282 8.95289 1.4 7.35186 -51.9301 -46.2759
664 -4.75282 8.95289 1.4 7.51484 -46.1809 -176.77
665 -4.00282 8.95289 1.4 7.74732 -63.5027 88.9815
666 -3.25282 8.95289 1.4 8.04325 -63.8438 17.3557
667 -2.50282 8.95289 1.4 8.39595 -55.8475 43.5216
668 -1.75282 8.95289 1.4 8.79858 -52.1532 -109.074
669 -1.00282 8.95289 1.4 9.24462 -56.5992 97.0548
670 -0.25282 8.95289 1.4 9.72811 -62.2195 163.418
671 0.49718 8.95289 1.4 10.2437 -56.6003 75.6973
672 1.24718 8.95289 1.4 10.7869 -59.8954 -106.359
673 1.99718 8.95289 1.4 11.3536 -59.3485 -4.82826
674 2.74718 8.95289 1.4 11.9406 -61.2563 24.7961
675 3.49718 8.95289 1.4 12.545 -60.5384 109.034
676 4.24718 8.95289 1.4 13.1643 -61.872 115.675
677 4.99718 8.95289 1.4 13.7966 -65.1212 9.17062
678 5.74718 8.95289 1.4 14.4402 -68.0385 165.555
679 6.49718 8.95289 1.4 15.0937 -66.8795 108.545
680 7.24718 8.95289 1.4 15.7557 -76.102 76.0162
681 7.99718 8.95289 1.4 16.4253 -65.1316 -116.552
682 8.74718 8.95289 1.4 17.1015 -66.6816 100.431
683 9.49718 8.95289 1.4 17.7837 -73.7513 -32.6762
684 10.2472 8.95289 1.4 18.4712 -79.0979 122.102
685 10.9972 8.95289 1.4 19.1633 -70.3006 -177.409
686 11.7472 8.95289 1.4 19.8596 -70.1879 -109.044
687 12.4972 8.95289 1.4 20.5597 -70.0012 -81.5363
688 13.2472 8.95289 1.4 21.2632 -69.7743 54.9833
689 13.9972 8.95289 1.4 21.9698 -73.2424 -88.0389
690 14.7472 8.95289 1.4 22.6792 -85.3808 86.9116
691 15.4972 8.95289 1.4 23.3911 -123.627 176.583
692 16.2472 8.95289 1.4 24.1054 -94.0179 -169.142
693 16.9972 8.95289 1.4 24.8217 -72.9535 147.031
694 17.7472 8.95289 1.4 25.5399 -84.7441 -172.645
695 18.4972 8.95289 1.4 26.26 -82.347 128.012
696 19.2472 8.95289 1.4 26.9817 -73.1018 165.282
697 19.9972 8.95289 1.4 27.7048 -77.8627 -118.935
698 20.7472 8.95289 1.4 28.4294 -76.6772 -129.254
699 21.4972 8.95289 1.4 29.1553 -75.0072 -70.5899
700 22.2472 8.95289 1.4 29.8823 -69.3427 -62.0289
701 22.9972 8.95289 1.4 30.6105 -75.5186 -26.6958
702 23.7472 8.95289 1.4 31.3396 -78.2252 3.34762
703 24.4972 8.95289 1.4 32.0698 -73.3311 133.818
704 25.2472 8.95289 1.4 32.8008 -73.2166 -31.5271
705 25.9972 8.95289 1.4 33.5327 -66.3781 -79.4328
706 26.7472 8.95289 1.4 34.2654 -73.7939 -6.95358
707 27.4972 8.95289 1.4 34.9988 -85.7329 111.125
708 28.2472 8.95289 1.4 35.7328 -84.4931 -62.3796
709 28.9972 8.95289 1.4 36.4676 -72.743 126.236
710 29.7472 8.95289 1.4 37.2029 -83.2314 1.00437
711 30.4972 8.95289 1.4 37.9388 -77.2904 101.013
712 -28.0028 9.70289 1.4 22.2301 -80.0129 -65.3115
713 -27.2528 9.70289 1.4 21.5139 -75.3778 90.2574
714 -26.5028 9.70289 1.4 20.8002 -86.2837 104.553
715 -25.7528 9.70289 1.4 20.0891 -84.9333 -127.641
716 -25.0028 9.70289 1.4 19.3809 -79.9976 -65.3168
717 -24.2528 9.70289 1.4 18.676 -76.363 59.7401
718 -23.5028 9.70289 1.4 17.9747 -69.4187 6.05598
719 -22.7528 9.70289 1.4 17.2775 -74.211 -66.1283
720 -22.0028 9.70289 1.4 16.585 -76.5536 99.4403
721 -21.2528 9.70289 1.4 15.8976 -77.1349 116.441
722 -20.5028 9.70289 1.4 15.2162 -87.7426 -38.5713
723 -19.7528 9.70289 1.4 14.5415 -76.0278 38.8976
724 -19.0028 9.70289 1.4 13.8745 -81.9987 -149.793
725 -18.2528 9.70289 1.4 13.2165 -87.8134 131.981
726 -17.5028 9.70289 1.4 12.5688 -91.5464 24.0789
727 -16.7528 9.70289 1.4 11.933 -70.8716 -125.491
728 -16.0028 9.70289 1.4 11.3113 -74.6978 -107.269
729 -15.2528 9.70289 1.4 10.706 -67.9485 -124.137
730 -14.5028 9.70289 1.4 10.1201 -68.5299 -143.408
731 -13.7528 9.70289 1.4 9.55715 -71.8404 69.4358
732 -13.0028 9.70289 1.4 9.02149 -70.5825 -13.0823
733 -12.2528 9.70289 1.4 8.51823 -57.4757 165.279
734 -11.5028 9.70289 1.4 8.05347 -62.0377 83.315
735 -10.7528 9.70289 1.4 7.63422 -59.5336 -133.378
736 -10.0028 9.70289 1.4 7.26838 -85.7779 60.7786
737 -9.25282 9.70289 1.4 6.96437 -68.2267 69.1616
738 -8.50282 9.70289 1.4 6.73056 -82.5424 38.6982
739 -7.75282 9.70289 1.4 6.57446 -55.3408 -75.8379
740 -7.00282 9.70289 1.4 6.50166 -51.5003 -113.869
741 -6.25282 9.70289 1.4 6.51495 -53.6843 132.988
742 -5.50282 9.70289 1.4 6.61382 -57.7811 -43.522
743 -4.75282 9.70289 1.4 6.79453 -53.9933 74.6917
744 -4.00282 9.70289 1.4 7.05079 -69.6396 -41.1047
745 -3.25282 9.70289 1.4 7.37474 -52.2199 171.286
746 -2.50282 9.70289 1.4 7.75788 -51.5358 103.988
747 -1.75282 9.70289 1.4 8.19194 -61.8061 -137.43
748 -1.00282 9.70289 1.4 8.66925 -54.6732 47.1754
749 -0.25282 9.70289 1.4 9.18308 -58.6662 -67.9432
750 0.49718 9.70289 1.4 9.72764 -57.3777 155.946
751 1.24718 9.70289 1.4 10.2981 -60.8968 -123.669
752 1.99718 9.70289 1.4 10.8903 -63.2568 -85.9676
753 2.74718 9.70289 1.4 11.5009 -62.1804 -6.87313
754 3.49718 9.70289 1.4 12.1272 -60.6004 -111.326
755 4.24718 9.70289 1.4 12.7668 -67.36 -171.144
756 4.99718 9.70289 1.4 13.4179 -72.6834 -25.3893
757 5.74718 9.70289 1.4 14.0788 -70.5667 -5.83953
758 6.49718 9.70289 1.4 14.7483 -77.219 -30.1838
759 7.24718 9.70289 1.4 15.4251 -66.1049 140.28
760 7.99718 9.70289 1.4 16.1085 -67.8312 -10.3505
761 8.74718 9.70289 1.4 16.7975 -67.4471 127.675
762 9.49718 9.70289 1.4 17.4915 -64.8568 -93.4897
763 10.2472 9.70289 1.4 18.19 -69.2666 48.1318
764 10.9972 9.70289 1.4 18.8924 -71.3829 126.155
765 11.7472 9.70289 1.4 19.5984 -73.6195 -146.852
766 12.4972 9.70289 1.4 20.3075 -68.1447 136.629
767 13.2472 9.70289 1.4 21.0195 -84.8614 108.634
768 13.9972 9.70289 1.4 21.734 -80.1325 -152.469
769 14.7472 9.70289 1.4 22.4508 -77.9911 76.3703
770 15.4972 9.70289 1.4 23.1698 -74.219 -105.402
771 16.2472 9.70289 1.4 23.8906 -81.779 -43.5326
772 16.9972 9.70289 1.4 24.6132 -250 0
773 17.7472 9.70289 1.4 25.3374 -84.2187 -120.511
774 18.4972 9.70289 1.4 26.063 -71.8199 -122.727
775 19.2472 9.70289 1.4 26.79 -74.2511 -30.9818
776 19.9972 9.70289 1.4 27.5182 -76.4179 22.8858
777 20.7472 9.70289 1.4 28.2475 -76.486 -141.596
778 21.4972 9.70289 1.4 28.978 -81.7998 155.788
779 22.2472 9.70289 1.4 29.7093 -73.38 167.586
780 22.9972 9.70289 1.4 30.4416 -70.2366 -166.934
781 23.7472 9.70289 1.4 31.1748 -75.9923 -92.6537
782 24.4972 9.70289 1.4 31.9087 -76.0404 101.851
783 25.2472 9.70289 1.4 32.6433 -84.2385 -99.1272
784 25.9972 9.70289 1.4 33.3787 -90.4275 30.1123
785 26.7472 9.70289 1.4 34.1146 -250 0
786 27.4972 9.70289 1.4 34.8512 -85.3685 77.4081
787 28.2472 9.70289 1.4 35.5883 -86.6984 69.1058
788 28.9972 9.70289 1.4 36.326 -77.2937 155.811
789 29.7472 9.70289 1.4 37.0641 -68.8052 -163.647
790 30.4972 9.70289 1.4 37.8028 -63.5329 52.1642
791 -28.0028 10.4529 1.4 22.0226 -80.7592 -157.405
792 -27.2528 10.4529 1.4 21.2995 -79.1114 48.0149
793 -26.5028 10.4529 1.4 20.5783 -72.152 -168.036
794 -25.7528 10.4529 1.4 19.8592 -78.0812 24.9818
795 -25.0028 10.4529 1.4 19.1425 -79.8507 6.47072
796 -24.2528 10.4529 1.4 18.4285 -75.7058 -37.5508
797 -23.5028 10.4529 1.4 17.7174 -88.8826 -15.2027
798 -22.7528 10.4529 1.4 17.0097 -75.8562 -127.881
799 -22.0028 10.4529 1.4 16.3058 -68.7641 150.546
800 -21.2528 10.4529 1.4 15.6061 -79.8915 -138.85
801 -20.5028 10.4529 1.4 14.9114 -70.1006 -130.509
802 -19.7528 10.4529 1.4 14.2223 -76.4486 -22.1045
803 -19.0028 10.4529 1.4 13.5396 -76.6367 -171.773
804 -18.2528 10.4529 1.4 12.8644 -77.2909 103.036
805 -17.5028 10.4529 1.4 12.198 -83.473 38.8986
806 -16.7528 10.4529 1.4 11.5419 -73.9879 -30.3567
807 -16.0028 10.4529 1.4 10.8978 -71.0022 -32.6623
808 -15.2528 10.4529 1.4 10.2682 -83.8234 145.37
809 -14.5028 10.4529 1.4 9.65577 -65.9314 139.822
810 -13.7528 10.4529 1.4 9.06405 -72.5424 122.706
811 -13.0028 10.4529 1.4 8.49735 -76.0904 -7.13486
812 -12.2528 10.4529 1.4 7.96103 -74.3738 -20.4056
813 -11.5028 10.4529 1.4 7.46164 -57.6864 67.7438
814 -10.7528 10.4529 1.4 7.00708 -61.9056 -65.9226
815 -10.0028 10.4529 1.4 6.6066 -65.8271 15.262
816 -9.25282 10.4529 1.4 6.27058 -65.8517 -168.057
817 -8.50282 10.4529 1.4 6.00985 -65.3108 -18.9475
818 -7.75282 10.4529 1.4 5.83449 -68.6213 150.028
819 -7.00282 10.4529 1.4 5.75233 -50.7086 -102.502
820 -6.25282 10.4529 1.4 5.76735 -52.2805 -131.997
821 -5.50282 10.4529 1.4 5.87881 -51.6924 49.9855
822 -4.75282 10.4529 1.4 6.0814 -59.6616 -116.835
823 -4.00282 10.4529 1.4 6.36643 -61.0843 166.313
824 -3.25282 10.4529 1.4 6.72343 -50.8442 -50.8938
825 -2.50282 10.4529 1.4 7.14161 -54.0078 73.6206
826 -1.75282 10.4529 1.4 7.61089 -53.3866 -44.8003
827 -1.00282 10.4529 1.4 8.12242 -51.8024 145.718
828 -0.25282 10.4529 1.4 8.66872 -56.4222 26.0115
829 0.49718 10.4529 1.4 9.24363 -61.4435 148.939
830 1.24718 10.4529 1.4 9.84214 -60.2831 -152.968
831 1.99718 10.4529 1.4 10.4602 -60.8452 -178.609
832 2.74718 10.4529 1.4 11.0945 -62.9788 93.1007
833 3.49718 10.4529 1.4 11.7425 -67.6057 -164.356
834 4.24718 10.4529 1.4 12.402 -69.308 170.592
835 4.99718 10.4529 1.4 13.0713 -75.8897 -88.937
836 5.74718 10.4529 1.4 13.7489 -98.4208 -23.015
837 6.49718 10.4529 1.4 14.4336 -63.8429 28.4708
838 7.24718 10.4529 1.4 15.1246 -67.9602 -137.461
839 7.99718 10.4529 1.4 15.8209 -73.7695 -112.502
840 8.74718 10.4529 1.4 16.5219 -69.0527 163.671
841 9.49718 10.4529 1.4 17.227 -67.41 -112.099
842 10.2472 10.4529 1.4 17.9358 -66.5696 -15.9117
843 10.9972 10.4529 1.4 18.6478 -88.433 -62.435
844 11.7472 10.4529 1.4 19.3627 -72.5922 -24.1599
845 12.4972 10.4529 1.4 20.0802 -70.0782 22.422
846 13.2472 10.4529 1.4 20.7999 -78.0719 16.9365
847 13.9972 10.4529 1.4 21.5217 -77.5779 -113.491
848 14.7472 10.4529 1.4 22.2454 -76.1115 91.0094
849 15.4972 10.4529 1.4 22.9708 -69.9761 -166.795
850 16.2472 10.4529 1.4 23.6976 -250 0
851 16.9972 10.4529 1.4 24.4259 -250 0
852 17.7472 10.4529 1.4 25.1555 -108.499 63.8776
853 18.4972 10.4529 1.4 25.8862 -79.6663 -17.5753
854 19.2472 10.4529 1.4 26.6181 -74.9387 141.066
855 19.9972 10.4529 1.4 27.3508 -80.7633 7.52777
856 20.7472 10.4529 1.4 28.0845 -72.0238 88.7186
857 21.4972 10.4529 1.4 28.8191 -72.4354 -52.8184
858 22.2472 10.4529 1.4 29.5544 -71.1207 49.8406
859 22.9972 10.4529 1.4 30.2904 -69.9505 120.87
860 23.7472 10.4529 1.4 31.0271 -69.0753 -5.54797
861 24.4972 10.4529 1.4 31.7645 -65.1005 81.7727
862 25.2472 10.4529 1.4 32.5024 -98.692 99.8068
863 25.9972 10.4529 1.4 33.2408 -68.8409 5.04284
864 26.7472 10.4529 1.4 33.9798 -66.1372 -47.2915
865 27.4972 10.4529 1.4 34.7192 -69.0806 151.854
866 28.2472 10.4529 1.4 35.4591 -250 0
867 28.9972 10.4529 1.4 36.1994 -69.4218 -44.6227
868 29.7472 10.4529 1.4 36.9401 -76.8243 69.8301
869 30.4972 10.4529 1.4 37.6811 -250 0
870 -28.0028 11.2029 1.4 21.8389 -88.5915 -55.1179
871 -27.2528 11.2029 1.4 21.1095 -92.2276 50.9963
872 -26.5028 11.2029 1.4 20.3816 -86.7369 124.398
873 -25.7528 11.2029 1.4 19.6553 -73.8498 -64.0293
874 -25.0028 11.2029 1.4 18.9309 -96.4 -5.5589
875 -24.2528 11.2029 1.4 18.2086 -91.4001 -84.9448
876 -23.5028 11.2029 1.4 17.4886 -69.1403 -106.192
877 -22.7528 11.2029 1.4 16.7712 -69.4396 31.9872
878 -22.0028 11.2029 1.4 16.0568 -70.6857 24.2401
879 -21.2528 11.2029 1.4 15.3458 -73.9318 47.7672
880 -20.5028 11.2029 1.4 14.6387 -68.4675 -142.239
881 -19.7528 11.2029 1.4 13.9361 -67.6563 -7.64875
882 -19.0028 11.2029 1.4 13.2387 -69.1424 -28.7551
883 -18.2528 11.2029 1.4 12.5474 -74.0293 -83.7886
884 -17.5028 11.2029 1.4 11.8632 -64.5192 -76.8728
885 -16.7528 11.2029 1.4 11.1874 -68.9584 136.682
886 -16.0028 11.2029 1.4 10.5217 -58.3197 -38.5292
887 -15.2528 11.2029 1.4 9.86807 -64.9804 -30.7196
888 -14.5028 11.2029 1.4 9.22913 -59.52 99.5593
889 -13.7528 11.2029 1.4 8.60812 -61.9898 57.688
890 -13.0028 11.2029 1.4 8.00923 -61.3436 -152.88
891 -12.2528 11.2029 1.4 7.4378 -57.3868 169.082
892 -11.5028 11.2029 1.4 6.90065 -58.3135 -64.721
893 -10.7528 11.2029 1.4 6.4064 -58.6284 -73.6931
894 -10.0028 11.2029 1.4 5.96573 -60.1414 101.681
895 -9.25282 11.2029 1.4 5.59133 -68.2543 85.1422
896 -8.50282 11.2029 1.4 5.29727 -72.0123 131.172
897 -7.75282 11.2029 1.4 5.09746 -68.2998 10.5495
898 -7.00282 11.2029 1.4 5.00321 -55.0318 15.9913
899 -6.25282 11.2029 1.4 5.02047 -43.7628 -38.9666
900 -5.50282 11.2029 1.4 5.14813 -43.8617 -57.423
901 -4.75282 11.2029 1.4 5.37831 -44.3682 -40.7709
902 -4.00282 11.2029 1.4 5.69862 -57.5179 71.4282
903 -3.25282 11.2029 1.4 6.09486 -51.7719 -56.1581
904 -2.50282 11.2029 1.4 6.55327 -48.1665 89.7088
905 -1.75282 11.2029 1.4 7.06176 -48.8977 26.7731
906 -1.00282 11.2029 1.4 7.61028 -52.3899 -145.851
907 -0.25282 11.2029 1.4 8.19082 -54.4089 -113.933
908 0.49718 11.2029 1.4 8.79702 -56.1806 -52.8966
909 1.24718 11.2029 1.4 9.42393 -52.5468 -101.775
910 1.99718 11.2029 1.4 10.0677 -69.8833 -54.5742
911 2.74718 11.2029 1.4 10.7253 -59.5683 -21.5923
912 3.49718 11.2029 1.4 11.3943 -64.1509 156.025
913 4.24718 11.2029 1.4 12.0728 -61.8873 -35.8575
914 4.99718 11.2029 1.4 12.7593 -63.6183 -20.3723
915 5.74718 11.2029 1.4 13.4526 -79.5346 32.8451
916 6.49718 11.2029 1.4 14.1517 -58.377 76.4115
917 7.24718 11.2029 1.4 14.8558 -64.1401 90.1037
918 7.99718 11.2029 1.4 15.5642 -58.2813 73.5825
919 8.74718 11.2029 1.4 16.2762 -61.3079 106.895
920 9.49718 11.2029 1.4 16.9916 -62.6019 93.463
921 10.2472 11.2029 1.4 17.7098 -61.4996 92.0375
922 10.9972 11.2029 1.4 18.4305 -63.7377 35.3698
923 11.7472 11.2029 1.4 19.1535 -55.7378 58.0585
924 12.4972 11.2029 1.4 19.8785 -63.8797 46.9183
925 13.2472 11.2029 1.4 20.6053 -76.6034 171.408
926 13.9972 11.2029 1.4 21.3337 -63.5344 113.257
927 14.7472 11.2029 1.4 22.0635 -72.4987 110.536
928 15.4972 11.2029 1.4 22.7947 -68.2477 -171.679
929 16.2472 11.2029 1.4 23.527 -79.986 132.364
930 16.9972 11.2029 1.4 24.2604 -68.674 -49.3756
931 17.7472 11.2029 1.4 24.9948 -76.1078 -60.4483
932 18.4972 11.2029 1.4 25.7301 -67.571 -105.338
933 19.2472 11.2029 1.4 26.4663 -86.8088 -118.999
934 19.9972 11.2029 1.4 27.2032 -67.8408 176.556
935 20.7472 11.2029 1.4 27.9407 -85.5445 -162.462
936 21.4972 11.2029 1.4 28.679 -71.1215 -177.67
937 22.2472 11.2029 1.4 29.4178 -73.0481 29.5968
938 22.9972 11.2029 1.4 30.1571 -65.4124 99.2421
939 23.7472 11.2029 1.4 30.897 -67.1517 26.4699
940 24.4972 11.2029 1.4 31.6374 -70.7269 16.5592
941 25.2472 11.2029 1.4 32.3782 -68.3365 -117.161
942 25.9972 11.2029 1.4 33.1194 -65.8402 -129.556
943 26.7472 11.2029 1.4 33.861 -69.3589 -165.64
944 27.4972 11.2029 1.4 34.603 -60.5033 -161.642
945 28.2472 11.2029 1.4 35.3453 -76.1039 72.2854
946 28.9972 11.2029 1.4 36.0879 -67.5745 -53.5521
947 29.7472 11.2029 1.4 36.8308 -73.9681 67.6474
948 30.4972 11.2029 1.4 37.574 -75.4176 12.1088
949 -28.0028 11.9529 1.4 21.6796 -74.2575 -3.39824
950 -27.2528 11.9529 1.4 20.9446 -80.0784 -47.7739
951 -26.5028 11.9529 1.4 20.2108 -71.4051 85.0284
952 -25.7528 11.9529 1.4 19.4782 -63.519 123.65
953 -25.0028 11.9529 1.4 18.7469 -60.8726 134.367
954 -24.2528 11.9529 1.4 18.0172 -62.1204 160.929
955 -23.5028 11.9529 1.4 17.2892 -65.5548 140.506
956 -22.7528 11.9529 1.4 16.5632 -60.189 -100.02
957 -22.0028 11.9529 1.4 15.8395 -66.3783 -44.5966
958 -21.2528 11.9529 1.4 15.1183 -61.6268 -14.6221
959 -20.5028 11.9529 1.4 14.4 -62.555 -10.0698
960 -19.7528 11.9529 1.4 13.6851 -62.9666 -36.2875
961 -19.0028 11.9529 1.4 12.9743 -62.7215 -150.752
962 -18.2528 11.9529 1.4 12.268 -58.1646 -179.931
963 -17.5028 11.9529 1.4 11.5673 -59.1368 97.6273
964 -16.7528 11.9529 1.4 10.8732 -58.2382 94.3676
965 -16.0028 11.9529 1.4 10.1869 -64.5117 151.464
966 -15.2528 11.9529 1.4 9.51034 -68.8966 128.551
967 -14.5028 11.9529 1.4 8.84559 -74.6545 29.775
968 -13.7528 11.9529 1.4 8.19558 -57.2721 32.5416
969 -13.0028 11.9529 1.4 7.5641 -58.2021 16.0977
970 -12.2528 11.9529 1.4 6.9562 -64.9753 0.661417
971 -11.5028 11.9529 1.4 6.37861 -55.142 40.6396
972 -10.7528 11.9529 1.4 5.84035 -56.7446 -164.822
973 -10.0028 11.9529 1.4 5.3533 -60.6917 157.318
974 -9.25282 11.9529 1.4 4.93263 -71.6426 -25.5456
975 -8.50282 11.9529 1.4 4.59661 -61.5491 -168.928
976 -7.75282 11.9529 1.4 4.36485 -60.0899 112.843
977 -7.00282 11.9529 1.4 4.2544 -42.2312 68.9416
978 -6.25282 11.9529 1.4 4.27469 -42.4318 -38.1935
979 -5.50282 11.9529 1.4 4.42391 -56.7274 165.215
980 -4.75282 11.9529 1.4 4.68978 -47.1909 146.258
981 -4.00282 11.9529 1.4 5.05392 -45.3991 145.202
982 -3.25282 11.9529 1.4 5.49683 -50.3307 -46.6417
983 -2.50282 11.9529 1.4 6.0011 -51.6899 -109.688
984 -1.75282 11.9529 1.4 6.55257 -52.3703 73.6797
985 -1.00282 11.9529 1.4 7.14032 -49.272 127.975
986 -0.25282 11.9529 1.4 7.75611 -48.8045 124.179
987 0.49718 11.9529 1.4 8.39377 -55.6054 93.3197
988 1.24718 11.9529 1.4 9.04866 -53.2539 -130.209
989 1.99718 11.9529 1.4 9.71732 -56.612 -50.1328
990 2.74718 11.9529 1.4 10.3971 -56.6153 -130.03
991 3.49718 11.9529 1.4 11.0859 -52.266 -156.643
992 4.24718 11.9529 1.4 11.7822 -66.4654 176.703
993 4.99718 11.9529 1.4 12.4847 -56.9471 -128.437
994 5.74718 11.9529 1.4 13.1925 -61.5613 -147.763
995 6.49718 11.9529 1.4 13.9047 -60.6418 127.235
996 7.24718 11.9529 1.4 14.6206 -55.4862 -175.601
997 7.99718 11.9529 1.4 15.3398 -61.4693 -135.993
998 8.74718 11.9529 1.4 16.0619 -68.4577 -163.007
999 9.49718 11.9529 1.4 16.7864 -59.1225 -67.6216
1000 10.2472 11.9529 1.4 17.513 -60.8616 -95.536
1001 10.9972 11.9529 1.4 18.2415 -56.6289 -131.415
1002 11.7472 11.9529 1.4 18.9717 -64.511 161.139
1003 12.4972 11.9529 1.4 19.7034 -67.169 55.0652
1004 13.2472 11.9529 1.4 20.4364 -67.2004 -170.113
1005 13.9972 11.9529 1.4 21.1706 -70.054 131.73
1006 14.7472 11.9529 1.4 21.9059 -69.5038 -45.8843
1007 15.4972 11.9529 1.4 22.6421 -67.3679 -113.249
1008 16.2472 11.9529 1.4 23.3792 -69.8689 6.92215
1009 16.9972 11.9529 1.4 24.1172 -70.9071 -24.6699
1010 17.7472 11.9529 1.4 24.8558 -74.2852 -62.8997
1011 18.4972 11.9529 1.4 25.5951 -64.6872 140.992
1012 19.2472 11.9529 1.4 26.335 -69.7481 -171.133
1013 19.9972 11.9529 1.4 27.0754 -61.9929 146.108
1014 20.7472 11.9529 1.4 27.8164 -73.3472 -168.734
1015 21.4972 11.9529 1.4 28.5578 -69.2223 20.8048
1016 22.2472 11.9529 1.4 29.2997 -65.4222 6.40315
1017 22.9972 11.9529 1.4 30.042 -71.842 -174.385
1018 23.7472 11.9529 1.4 30.7846 -73.5557 75.4111
1019 24.4972 11.9529 1.4 31.5276 -75.8847 -55.287
1020 25.2472 11.9529 1.4 32.271 -76.1713 162.777
1021 25.9972 11.9529 1.4 33.0146 -61.8928 109.203
1022 26.7472 11.9529 1.4 33.7585 -77.1734 154.118
1023 27.4972 11.9529 1.4 34.5027 -72.5926 157.77
1024 28.2472 11.9529 1.4 35.2471 -71.7282 -12.3716
1025 28.9972 11.9529 1.4 35.9917 -65.8967 -119.958
1026 29.7472 11.9529 1.4 36.7366 -65.9439 -105.954
1027 30.4972 11.9529 1.4 37.4817 -66.1516 -116.041
1028 -28.0028 12.7029 1.4 21.5452 -70.2868 -7.13854
1029 -27.2528 12.7029 1.4 20.8055 -68.2822 5.15817
1030 -26.5028 12.7029 1.4 20.0666 -63.1579 -49.7904
1031 -25.7528 12.7029 1.4 19.3285 -79.3973 -155.809
1032 -25.0028 12.7029 1.4 18.5914 -73.5174 172.238
1033 -24.2528 12.7029 1.4 17.8553 -65.2905 -115.44
1034 -23.5028 12.7029 1.4 17.1205 -69.1224 -89.936
1035 -22.7528 12.7029 1.4 16.387 -81.0517 -177.556
1036 -22.0028 12.7029 1.4 15.6551 -68.2496 -124.067
1037 -21.2528 12.7029 1.4 14.925 -63.1543 119.095
1038 -20.5028 12.7029 1.4 14.1969 -65.3844 72.0621
1039 -19.7528 12.7029 1.4 13.4713 -58.5005 -12.9793
1040 -19.0028 12.7029 1.4 12.7485 -64.1816 -28.4748
1041 -18.2528 12.7029 1.4 12.029 -69.5164 114.284
1042 -17.5028 12.7029 1.4 11.3135 -59.2276 52.8443
1043 -16.7528 12.7029 1.4 10.6027 -62.7875 48.161
1044 -16.0028 12.7029 1.4 9.89779 -59.9979 -0.614653
1045 -15.2528 12.7029 1.4 9.19996 -60.3003 -68.6131
1046 -14.5028 12.7029 1.4 8.51101 -60.3712 -142.447
1047 -13.7528 12.7029 1.4 7.83329 -64.0567 -77.0257
1048 -13.0028 12.7029 1.4 7.16997 -57.6187 177.236
1049 -12.2528 12.7029 1.4 6.52545 -55.5222 -120.813
1050 -11.5028 12.7029 1.4 5.90589 -64.1104 -97.1703
1051 -10.7528 12.7029 1.4 5.32001 -58.2891 -79.3493
1052 -10.0028 12.7029 1.4 4.78023 -52.9445 65.6086
1053 -9.25282 12.7029 1.4 4.30391 -56.1374 -7.4392
1054 -8.50282 12.7029 1.4 3.91429 -65.7706 102.263
1055 -7.75282 12.7029 1.4 3.63932 -65.7214 160.517
1056 -7.00282 12.7029 1.4 3.5061 -40.9582 80.2876
1057 -6.25282 12.7029 1.4 3.53069 -46.9124 -21.6235
1058 -5.50282 12.7029 1.4 3.70996 -43.3965 -120.563
1059 -4.75282 12.7029 1.4 4.02329 -47.5206 -28.2633
1060 -4.00282 12.7029 1.4 4.44239 -46.2972 -124.353
1061 -3.25282 12.7029 1.4 4.94044 -53.1636 167.779
1062 -2.50282 12.7029 1.4 5.49599 -55.5723 -34.6159
1063 -1.75282 12.7029 1.4 6.09336 -47.8234 -2.45209
1064 -1.00282 12.7029 1.4 6.72139 -45.9532 -46.0737
1065 -0.25282 12.7029 1.4 7.37225 -55.6284 -110.804
1066 0.49718 12.7029 1.4 8.0404 -76.9002 -20.1015
1067 1.24718 12.7029 1.4 8.72188 -54.0086 -40.1471
1068 1.99718 12.7029 1.4 9.41378 -52.1936 -9.9373
1069 2.74718 12.7029 1.4 10.114 -57.6511 55.455
1070 3.49718 12.7029 1.4 10.8208 -56.5043 92.5487
1071 4.24718 12.7029 1.4 11.5331 -53.748 0.884107
1072 4.99718 12.7029 1.4 12.25 -55.8239 -79.7698
1073 5.74718 12.7029 1.4 12.9705 -67.6339 -100.427
1074 6.49718 12.7029 1.4 13.6942 -59.0527 -42.9929
1075 7.24718 12.7029 1.4 14.4207 -62.1864 170.73
1076 7.99718 12.7029 1.4 15.1494 -59.0722 -110.517
1077 8.74718 12.7029 1.4 15.8801 -62.7525 -134.05
1078 9.49718 12.7029 1.4 16.6125 -68.1237 116.51
1079 10.2472 12.7029 1.4 17.3464 -56.2319 74.3842
1080 10.9972 12.7029 1.4 18.0816 -72.6275 -150.793
1081 11.7472 12.7029 1.4 18.818 -64.9862 -141.862
1082 12.4972 12.7029 1.4 19.5555 -59.5599 26.2971
1083 13.2472 12.7029 1.4 20.2938 -73.5495 164.623
1084 13.9972 12.7029 1.4 21.033 -67.7851 83.1561
1085 14.7472 12.7029 1.4 21.7729 -62.0594 -178.575
1086 15.4972 12.7029 1.4 22.5135 -60.0062 132.715
1087 16.2472 12.7029 1.4 23.2547 -65.6144 33.2648
1088 16.9972 12.7029 1.4 23.9965 -67.6676 38.3399
1089 17.7472 12.7029 1.4 24.7387 -67.1683 64.4998
1090 18.4972 12.7029 1.4 25.4814 -61.7508 59.1957
1091 19.2472 12.7029 1.4 26.2245 -68.377 -128.223
1092 19.9972 12.7029 1.4 26.968 -77.1629 -25.3121
1093 20.7472 12.7029 1.4 27.7118 -69.3019 -74.2874
1094 21.4972 12.7029 1.4 28.456 -75.9528 144.298
1095 22.2472 12.7029 1.4 29.2004 -68.4222 33.0807
1096 22.9972 12.7029 1.4 29.9452 -71.1484 -18.7737
1097 23.7472 12.7029 1.4 30.6902 -66.1882 -92.0685
1098 24.4972 12.7029 1.4 31.4354 -63.6312 49.14
1099 25.2472 12.7029 1.4 32.1809 -73.4393 -0.413351
1100 25.9972 12.7029 1.4 32.9265 -77.4251 124.174
1101 26.7472 12.7029 1.4 33.6724 -78.0809 25.6035
1102 27.4972 12.7029 1.4 34.4184 -73.7791 82.2387
1103 28.2472 12.7029 1.4 35.1646 -83.7033 -151.631
1104 28.9972 12.7029 1.4 35.911 -84.883 68.5352
1105 29.7472 12.7029 1.4 36.6575 -73.0921 11.2226
1106 30.4972 12.7029 1.4 37.4041 -78.0864 19.2683
1107 -28.0028 13.4529 1.4 21.4363 -71.2383 78.1259
1108 -27.2528 13.4529 1.4 20.6927 -71.8697 109.356
1109 -26.5028 13.4529 1.4 19.9496 -70.8225 -62.2953
1110 -25.7528 13.4529 1.4 19.207 -80.0156 41.9961
1111 -25.0028 13.4529 1.4 18.465 -73.3163 -115.386
1112 -24.2528 13.4529 1.4 17.7237 -77.8473 148.892
1113 -23.5028 13.4529 1.4 16.9832 -68.8644 -106.464
1114 -22.7528 13.4529 1.4 16.2435 -71.2027 -150.584
1115 -22.0028 13.4529 1.4 15.5048 -59.6086 -171.56
1116 -21.2528 13.4529 1.4 14.7673 -70.6353 43.5965
1117 -20.5028 13.4529 1.4 14.0311 -64.6131 -35.5134
1118 -19.7528 13.4529 1.4 13.2964 -61.8191 -10.0483
1119 -19.0028 13.4529 1.4 12.5635 -69.9734 -167.592
1120 -18.2528 13.4529 1.4 11.8328 -70.2934 -27.7523
1121 -17.5028 13.4529 1.4 11.1046 -60.343 -173.265
1122 -16.7528 13.4529 1.4 10.3796 -63.9706 -176.538
1123 -16.0028 13.4529 1.4 9.65837 -64.4222 93.3953
1124 -15.2528 13.4529 1.4 8.94187 -61.8206 96.6923
1125 -14.5028 13.4529 1.4 8.23135 -57.4859 175.954
1126 -13.7528 13.4529 1.4 7.52849 -67.449 -154.52
1127 -13.0028 13.4529 1.4 6.83566 -73.2913 66.7393
1128 -12.2528 13.4529 1.4 6.15624 -66.1977 -101.231
1129 -11.5028 13.4529 1.4 5.49521 -58.2021 60.087
1130 -10.7528 13.4529 1.4 4.86007 -58.0654 11.1803
1131 -10.0028 13.4529 1.4 4.26244 -55.5311 122.975
1132 -9.25282 13.4529 1.4 3.7204 -47.6516 -70.1144
1133 -8.50282 13.4529 1.4 3.26182 -54.0994 -153.58
1134 -7.75282 13.4529 1.4 2.92617 -63.2471 50.6448
1135 -7.00282 13.4529 1.4 2.75872 -45.0739 160.892
1136 -6.25282 13.4529 1.4 2.7899 -39.655 36.3206
1137 -5.50282 13.4529 1.4 3.01357 -49.0597 94.9029
1138 -4.75282 13.4529 1.4 3.39185 -51.7701 37.109
1139 -4.00282 13.4529 1.4 3.87978 -46.0906 46.4675
1140 -3.25282 13.4529 1.4 4.44136 -47.2427 -130.659
1141 -2.50282 13.4529 1.4 5.0521 -45.8007 -162.57
1142 -1.75282 13.4529 1.4 5.69621 -53.9083 31.0524
1143 -1.00282 13.4529 1.4 6.36355 -53.5656 119.807
1144 -0.25282 13.4529 1.4 7.04754 -55.0963 95.5046
1145 0.49718 13.4529 1.4 7.74376 -62.6642 21.7186
1146 1.24718 13.4529 1.4 8.4492 -55.9915 -167.333
1147 1.99718 13.4529 1.4 9.16171 -60.9508 66.3306
1148 2.74718 13.4529 1.4 9.87978 -58.1895 124.976
1149 3.49718 13.4529 1.4 10.6023 -58.8624 -124.163
1150 4.24718 13.4529 1.4 11.3283 -72.1374 -84.485
1151 4.99718 13.4529 1.4 12.0573 -55.4012 -142
1152 5.74718 13.4529 1.4 12.7888 -71.2453 103.154
1153 6.49718 13.4529 1.4 13.5222 -54.3388 16.723
1154 7.24718 13.4529 1.4 14.2574 -67.5582 -155.338
1155 7.99718 13.4529 1.4 14.994 -63.2306 60.7491
1156 8.74718 13.4529 1.4 15.732 -62.1747 -66.159
1157 9.49718 13.4529 1.4 16.471 -69.8818 -47.6026
1158 10.2472 13.4529 1.4 17.2109 -57.3352 89.0284
1159 10.9972 13.4529 1.4 17.9517 -61.0253 -95.9134
1160 11.7472 13.4529 1.4 18.6932 -60.6317 -157.843
1161 12.4972 13.4529 1.4 19.4354 -84.7299 -75.833
1162 13.2472 13.4529 1.4 20.1781 -67.4381 95.0525
1163 13.9972 13.4529 1.4 20.9214 -75.032 14.2574
1164 14.7472 13.4529 1.4 21.6651 -66.1334 91.7109
1165 15.4972 13.4529 1.4 22.4093 -62.415 -30.7985
1166 16.2472 13.4529 1.4 23.1538 -68.2294 0.0902417
1167 16.9972 13.4529 1.4 23.8987 -66.6014 -45.3529
1168 17.7472 13.4529 1.4 24.6439 -68.5507 127.299
1169 18.4972 13.4529 1.4 25.3893 -75.2608 22.4069
1170 19.2472 13.4529 1.4 26.1351 -79.4867 -10.9215
1171 19.9972 13.4529 1.4 26.881 -66.6601 8.97961
1172 20.7472 13.4529 1.4 27.6272 -59.7957 -27.7108
1173 21.4972 13.4529 1.4 28.3736 -65.2347 -54.8054
1174 22.2472 13.4529 1.4 29.1202 -74.6956 -19.6471
1175 22.9972 13.4529 1.4 29.8669 -66.0349 -90.9214
1176 23.7472 13.4529 1.4 30.6138 -71.2358 -146.841
1177 24.4972 13.4529 1.4 31.3609 -78.2757 106.99
1178 25.2472 13.4529 1.4 32.108 -72.775 107.972
1179 25.9972 13.4529 1.4 32.8554 -67.3107 34.4382
1180 26.7472 13.4529 1.4 33.6028 -87.9827 -13.3138
1181 27.4972 13.4529 1.4 34.3503 -81.715 72.8101
1182 28.2472 13.4529 1.4 35.098 -89.5649 -137.932
1183 28.9972 13.4529 1.4 35.8457 -68.6013 174.654
1184 29.7472 13.4529 1.4 36.5936 -250 0
1185 30.4972 13.4529 1.4 37.3415 -79.058 80.5275
1186 -28.0028 14.2029 1.4 21.3532 -67.0366 -109.012
1187 -27.2528 14.2029 1.4 20.6066 -66.8655 174.566
1188 -26.5028 14.2029 1.4 19.8602 -67.3121 115.456
1189 -25.7528 14.2029 1.4 19.1142 -66.6317 48.3598
1190 -25.0028 14.2029 1.4 18.3685 -67.0293 -13.2748
1191 -24.2528 14.2029 1.4 17.6231 -68.1323 -2.41034
1192 -23.5028 14.2029 1.4 16.8781 -64.6593 -46.1212
1193 -22.7528 14.2029 1.4 16.1336 -66.6256 -175.325
1194 -22.0028 14.2029 1.4 15.3897 -74.0415 47.7772
1195 -21.2528 14.2029 1.4 14.6464 -67.8145 71.7774
1196 -20.5028 14.2029 1.4 13.9037 -63.4402 161.913
1197 -19.7528 14.2029 1.4 13.1619 -61.5557 173.715
1198 -19.0028 14.2029 1.4 12.4211 -64.2195 -105.02
1199 -18.2528 14.2029 1.4 11.6815 -68.5273 -33.5264
1200 -17.5028 14.2029 1.4 10.9433 -65.9058 52.5363
1201 -16.7528 14.2029 1.4 10.2068 -63.392 -136.221
1202 -16.0028 14.2029 1.4 9.47243 -75.4643 -36.2785
1203 -15.2528 14.2029 1.4 8.7407 -64.7008 -29.8511
1204 -14.5028 14.2029 1.4 8.01236 -74.969 139.591
1205 -13.7528 14.2029 1.4 7.28841 -76.0148 -82.6534
1206 -13.0028 14.2029 1.4 6.57031 -70.4962 -59.117
1207 -12.2528 14.2029 1.4 5.86021 -75.2557 79.6035
1208 -11.5028 14.2029 1.4 5.1614 -67.1826 -62.7749
1209 -10.7528 14.2029 1.4 4.47919 -61.8316 171.099
1210 -10.0028 14.2029 1.4 3.82245 -68.3922 -18.5775
1211 -9.25282 14.2029 1.4 3.2069 -48.6823 3.64819
1212 -8.50282 14.2029 1.4 2.66125 -49.0124 169.785
1213 -7.75282 14.2029 1.4 2.23725 -57.6092 147.037
1214 -7.00282 14.2029 1.4 2.01328 -36.1059 153.383
1215 -6.25282 14.2029 1.4 2.05581 -38.6394 95.1942
1216 -5.50282 14.2029 1.4 2.3504 -43.408 -79.0984
1217 -4.75282 14.2029 1.4 2.81912 -41.5229 -75.6367
1218 -4.00282 14.2029 1.4 3.3905 -48.089 38.6045
1219 -3.25282 14.2029 1.4 4.02101 -47.7646 -23.1603
1220 -2.50282 14.2029 1.4 4.68685 -64.1279 -159.467
1221 -1.75282 14.2029 1.4 5.3749 -62.2058 -26.399
1222 -1.00282 14.2029 1.4 6.07763 -56.7088 145.866
1223 -0.25282 14.2029 1.4 6.79048 -71.6768 143.104
1224 0.49718 14.2029 1.4 7.51057 -58.78 172.203
1225 1.24718 14.2029 1.4 8.236 -54.5918 101.819
1226 1.99718 14.2029 1.4 8.96548 -58.8432 -16.4479
1227 2.74718 14.2029 1.4 9.69808 -55.9067 159.948
1228 3.49718 14.2029 1.4 10.4332 -62.4046 -80.1899
1229 4.24718 14.2029 1.4 11.1702 -64.5524 55.7413
1230 4.99718 14.2029 1.4 11.9089 -62.8335 43.8833
1231 5.74718 14.2029 1.4 12.6489 -62.397 -16.9247
1232 6.49718 14.2029 1.4 13.39 -56.8353 -43.2941
1233 7.24718 14.2029 1.4 14.1321 -56.7303 -138.975
1234 7.99718 14.2029 1.4 14.8749 -54.5904 101.976
1235 8.74718 14.2029 1.4 15.6185 -56.7151 -41.4159
1236 9.49718 14.2029 1.4 16.3626 -61.0507 150.772
1237 10.2472 14.2029 1.4 17.1073 -60.1954 49.6204
1238 10.9972 14.2029 1.4 17.8523 -72.875 167.294
1239 11.7472 14.2029 1.4 18.5978 -69.5519 -37.2058
1240 12.4972 14.2029 1.4 19.3437 -70.0886 92.2651
1241 13.2472 14.2029 1.4 20.0898 -61.0617 -40.3973
1242 13.9972 14.2029 1.4 20.8362 -79.7545 117.86
1243 14.7472 14.2029 1.4 21.5829 -66.3726 170.53
1244 15.4972 14.2029 1.4 22.3298 -60.4205 -146.424
1245 16.2472 14.2029 1.4 23.0769 -65.0141 -104.941
1246 16.9972 14.2029 1.4 23.8242 -76.1136 100.229
1247 17.7472 14.2029 1.4 24.5716 -64.996 56.8204
1248 18.4972 14.2029 1.4 25.3192 -68.056 -56.9658
1249 19.2472 14.2029 1.4 26.0669 -63.0412 -129.079
1250 19.9972 14.2029 1.4 26.8148 -68.0756 132.929
1251 20.7472 14.2029 1.4 27.5628 -78.621 136.426
1252 21.4972 14.2029 1.4 28.3108 -71.8866 5.00216
1253 22.2472 14.2029 1.4 29.059 -66.3144 100.652
1254 22.9972 14.2029 1.4 29.8073 -67.2119 169.041
1255 23.7472 14.2029 1.4 30.5557 -64.1027 166.931
1256 24.4972 14.2029 1.4 31.3041 -65.3857 145.678
1257 25.2472 14.2029 1.4 32.0526 -71.6745 -92.5803
1258 25.9972 14.2029 1.4 32.8012 -70.5526 125.431
1259 26.7472 14.2029 1.4 33.5498 -64.9667 89.3612
1260 27.4972 14.2029 1.4 34.2985 -72.6055 3.71438
1261 28.2472 14.2029 1.4 35.0473 -82.3852 134.011
1262 28.9972 14.2029 1.4 35.7961 -67.3211 -102.825
1263 29.7472 14.2029 1.4 36.5449 -68.6203 -56.3198
1264 30.4972 14.2029 1.4 37.2938 -250 0
1265 -28.0028 14.9529 1.4 21.2962 -63.6105 -80.9335
1266 -27.2528 14.9529 1.4 20.5475 -70.9814 -129.81
1267 -26.5028 14.9529 1.4 19.7989 -77.2252 92.0965
1268 -25.7528 14.9529 1.4 19.0505 -83.4314 58.9426
1269 -25.0028 14.9529 1.4 18.3021 -66.3519 33.7809
1270 -24.2528 14.9529 1.4 17.554 -67.7795 -113.159
1271 -23.5028 14.9529 1.4 16.8059 -67.5662 19.2507
1272 -22.7528 14.9529 1.4 16.0581 -64.7521 132.355
1273 -22.0028 14.9529 1.4 15.3105 -71.4199 -156.218
1274 -21.2528 14.9529 1.4 14.5631 -83.8829 -89.0669
1275 -20.5028 14.9529 1.4 13.816 -69.595 67.1925
1276 -19.7528 14.9529 1.4 13.0692 -59.1921 91.8081
1277 -19.0028 14.9529 1.4 12.3228 -62.6308 125.725
1278 -18.2528 14.9529 1.4 11.5769 -61.6436 176.439
1279 -17.5028 14.9529 1.4 10.8316 -67.9218 -125.225
1280 -16.7528 14.9529 1.4 10.087 -59.9908 -16.4686
1281 -16.0028 14.9529 1.4 9.34316 -54.8449 34.2179
1282 -15.2528 14.9529 1.4 8.60045 -53.4977 50.1607
1283 -14.5028 14.9529 1.4 7.85912 -52.6429 38.9929
1284 -13.7528 14.9529 1.4 7.1196 -58.505 81.0291
1285 -13.0028 14.9529 1.4 6.38254 -59.8983 34.7569
1286 -12.2528 14.9529 1.4 5.64888 -58.1192 -62.9271
1287 -11.5028 14.9529 1.4 4.92015 -53.7694 -172.191
1288 -10.7528 14.9529 1.4 4.19892 -51.7185 76.9016
1289 -10.0028 14.9529 1.4 3.48984 -41.2432 125.757
1290 -9.25282 14.9529 1.4 2.80214 -52.0463 -35.5375
1291 -8.50282 14.9529 1.4 2.15639 -43.1924 121.329
1292 -7.75282 14.9529 1.4 1.60408 -45.0114 22.163
1293 -7.00282 14.9529 1.4 1.27323 -38.1562 -91.8325
1294 -6.25282 14.9529 1.4 1.33945 -35.6299 5.52728
1295 -5.50282 14.9529 1.4 1.75846 -45.8687 -102.044
1296 -4.75282 14.9529 1.4 2.34845 -38.8667 -99.3309
1297 -4.00282 14.9529 1.4 3.01052 -57.9655 -130.693
1298 -3.25282 14.9529 1.4 3.70625 -51.0877 178.92
1299 -2.50282 14.9529 1.4 4.41977 -51.4529 -93.9251
1300 -1.75282 14.9529 1.4 5.14367 -53.8088 -55.6723
1301 -1.00282 14.9529 1.4 5.87413 -89.4844 -108.124
1302 -0.25282 14.9529 1.4 6.60897 -56.5221 59.336
1303 0.49718 14.9529 1.4 7.34687 -47.7282 -174.834
1304 1.24718 14.9529 1.4 8.087 -55.9955 152.293
1305 1.99718 14.9529 1.4 8.82879 -55.8733 154.771
1306 2.74718 14.9529 1.4 9.57186 -54.0758 130.537
1307 3.49718 14.9529 1.4 10.3159 -60.1786 1.37983
1308 4.24718 14.9529 1.4 11.0608 -67.5662 -71.734
1309 4.99718 14.9529 1.4 11.8063 -57.6569 -96.8837
1310 5.74718 14.9529 1.4 12.5524 -68.9686 -148.608
1311 6.49718 14.9529 1.4 13.2989 -62.9773 -177.385
1312 7.24718 14.9529 1.4 14.0458 -60.2903 43.1931
1313 7.99718 14.9529 1.4 14.793 -64.8573 81.9401
1314 8.74718 14.9529 1.4 15.5404 -71.832 -89.5995
1315 9.49718 14.9529 1.4 16.2881 -64.5341 20.8486
1316 10.2472 14.9529 1.4 17.036 -62.3013 177.04
1317 10.9972 14.9529 1.4 17.7841 -72.4542 -105.31
1318 11.7472 14.9529 1.4 18.5323 -74.2255 145.052
1319 12.4972 14.9529 1.4 19.2807 -73.7907 -74.002
1320 13.2472 14.9529 1.4 20.0292 -72.6899 -129.312
1321 13.9972 14.9529 1.4 20.7778 -77.8838 -10.83
1322 14.7472 14.9529 1.4 21.5265 -77.7622 28.173
1323 15.4972 14.9529 1.4 22.2753 -80.497 -144.534
1324 16.2472 14.9529 1.4 23.0241 -90.677 30.3015
1325 16.9972 14.9529 1.4 23.7731 -73.5 75.9805
1326 17.7472 14.9529 1.4 24.5221 -84.1376 74.9807
1327 18.4972 14.9529 1.4 25.2711 -93.3505 -65.4421
1328 19.2472 14.9529 1.4 26.0202 -84.8985 -99.626
1329 19.9972 14.9529 1.4 26.7694 -77.7944 172.446
1330 20.7472 14.9529 1.4 27.5186 -250 0
1331 21.4972 14.9529 1.4 28.2679 -90.2893 127.193
1332 22.2472 14.9529 1.4 29.0171 -79.6532 6.53845
1333 22.9972 14.9529 1.4 29.7665 -72.8743 115.276
1334 23.7472 14.9529 1.4 30.5158 -82.4634 -102.998
1335 24.4972 14.9529 1.4 31.2652 -123.83 -24.2578
1336 25.2472 14.9529 1.4 32.0146 -85.2323 126.684
1337 25.9972 14.9529 1.4 32.7641 -87.7635 -79.5829
1338 26.7472 14.9529 1.4 33.5135 -87.6874 74.6607
1339 27.4972 14.9529 1.4 34.263 -83.6723 -147.14
1340 28.2472 14.9529 1.4 35.0126 -89.169 -83.8216
1341 28.9972 14.9529 1.4 35.7621 -87.607 -98.941
1342 29.7472 14.9529 1.4 36.5116 -87.4629 138.145
1343 30.4972 14.9529 1.4 37.2612 -86.1592 8.71618
1344 -28.0028 15.7029 1.4 21.2654 -85.9756 -126.585
1345 -27.2528 15.7029 1.4 20.5156 -70.0029 -79.3526
1346 -26.5028 15.7029 1.4 19.7659 -73.2653 -175.299
1347 -25.7528 15.7029 1.4 19.0161 -67.9052 41.3449
1348 -25.0028 15.7029 1.4 18.2664 -79.9791 -111.505
1349 -24.2528 15.7029 1.4 17.5167 -70.9196 50.5884
1350 -23.5028 15.7029 1.4 16.767 -66.0347 0.735243
1351 -22.7528 15.7029 1.4 16.0173 -67.6897 -80.5485
1352 -22.0028 15.7029 1.4 15.2677 -72.7618 -96.1186
1353 -21.2528 15.7029 1.4 14.5181 -67.7909 92.0474
1354 -20.5028 15.7029 1.4 13.7686 -60.8985 127.777
1355 -19.7528 15.7029 1.4 13.0191 -71.3987 30.2433
1356 -19.0028 15.7029 1.4 12.2697 -55.2702 -82.9128
1357 -18.2528 15.7029 1.4 11.5203 -56.2492 -97.8044
1358 -17.5028 15.7029 1.4 10.7711 -67.517 85.1072
1359 -16.7528 15.7029 1.4 10.0219 -56.7004 -172.604
1360 -16.0028 15.7029 1.4 9.27294 -54.3049 -160.237
1361 -15.2528 15.7029 1.4 8.52411 -55.2308 -150.655
1362 -14.5028 15.7029 1.4 7.77551 -59.2163 -127.585
1363 -13.7528 15.7029 1.4 7.0272 -52.6213 1.4207
1364 -13.0028 15.7029 1.4 6.2793 -66.9731 78.9752
1365 -12.2528 15.7029 1.4 5.53196 -44.6523 116.634
1366 -11.5028 15.7029 1.4 4.78546 -48.2884 -157.389
1367 -10.7528 15.7029 1.4 4.04026 -53.6747 -66.368
1368 -10.0028 15.7029 1.4 3.29723 -55.9065 -83.0302
1369 -9.25282 15.7029 1.4 2.55828 -46.2396 -13.6898
1370 -8.50282 15.7029 1.4 1.82834 -45.6282 -3.10271
1371 -7.75282 15.7029 1.4 1.1251 -38.7522 -105.41
1372 -7.00282 15.7029 1.4 0.560265 -32.3087 164.006
1373 -6.25282 15.7029 1.4 0.697807 -32.2646 95.6832
1374 -5.50282 15.7029 1.4 1.33603 -37.1673 19.1095
1375 -4.75282 15.7029 1.4 2.05134 -36.9138 65.1144
1376 -4.00282 15.7029 1.4 2.78497 -35.5858 59.3292
1377 -3.25282 15.7029 1.4 3.52549 -45.4559 -2.34001
1378 -2.50282 15.7029 1.4 4.26932 -47.9123 -61.5848
1379 -1.75282 15.7029 1.4 5.01499 -44.7751 -115.416
1380 -1.00282 15.7029 1.4 5.76179 -44.9965 -133.167
1381 -0.25282 15.7029 1.4 6.50932 -55.4964 128.063
1382 0.49718 15.7029 1.4 7.25736 -49.4461 26.4566
1383 1.24718 15.7029 1.4 8.00577 -47.4318 -0.897167
1384 1.99718 15.7029 1.4 8.75445 -51.9756 -21.0182
1385 2.74718 15.7029 1.4 9.50334 -74.7605 3.16119
1386 3.49718 15.7029 1.4 10.2524 -65.2129 105.338
1387 4.24718 15.7029 1.4 11.0016 -54.3085 74.9711
1388 4.99718 15.7029 1.4 11.7509 -54.4981 29.4731
1389 5.74718 15.7029 1.4 12.5002 -54.5399 -8.87494
1390 6.49718 15.7029 1.4 13.2497 -60.8693 -127.934
1391 7.24718 15.7029 1.4 13.9992 -64.7676 -132.835
1392 7.99718 15.7029 1.4 14.7487 -58.7229 -105.817
1393 8.74718 15.7029 1.4 15.4983 -70.0374 -137.241
1394 9.49718 15.7029 1.4 16.2479 -66.2115 -31.3802
1395 10.2472 15.7029 1.4 16.9976 -62.4772 21.8629
1396 10.9972 15.7029 1.4 17.7473 -73.3612 134.053
1397 11.7472 15.7029 1.4 18.497 -77.1835 -78.2664
1398 12.4972 15.7029 1.4 19.2468 -76.9855 58.2091
1399 13.2472 15.7029 1.4 19.9965 -95.2021 -57.9573
1400 13.9972 15.7029 1.4 20.7463 -71.0628 24.9082
1401 14.7472 15.7029 1.4 21.4961 -71.8164 110.213
1402 15.4972 15.7029 1.4 22.2459 -79.5841 173.512
1403 16.2472 15.7029 1.4 22.9957 -94.7763 120.2
1404 16.9972 15.7029 1.4 23.7455 -82.3499 -131.989
1405 17.7472 15.7029 1.4 24.4954 -76.5419 -154.758
1406 18.4972 15.7029 1.4 25.2452 -82.6477 -124.867
1407 19.2472 15.7029 1.4 25.9951 -82.4083 25.9606
1408 19.9972 15.7029 1.4 26.745 -84.646 -38.5197
1409 20.7472 15.7029 1.4 27.4948 -81.4537 163.717
1410 21.4972 15.7029 1.4 28.2447 -78.0605 -109.624
1411 22.2472 15.7029 1.4 28.9946 -70.4553 -93.2855
1412 22.9972 15.7029 1.4 29.7445 -78.0333 163.356
1413 23.7472 15.7029 1.4 30.4944 -88.3489 109.497
1414 24.4972 15.7029 1.4 31.2443 -81.532 81.4443
1415 25.2472 15.7029 1.4 31.9942 -92.1336 110.042
1416 25.9972 15.7029 1.4 32.7441 -87.5495 81.6718
1417 26.7472 15.7029 1.4 33.494 -87.2478 128.691
1418 27.4972 15.7029 1.4 34.244 -86.6734 132.296
1419 28.2472 15.7029 1.4 34.9939 -87.4824 106.558
1420 28.9972 15.7029 1.4 35.7438 -84.1442 -51.2349
1421 29.7472 15.7029 1.4 36.4937 -108.774 -29.9593
1422 30.4972 15.7029 1.4 37.2437 -91.9494 82.0951
1423 -28.0028 16.4529 1.4 21.2612 -70.8749 -112.826
1424 -27.2528 16.4529 1.4 20.5112 -67.848 101.189
1425 -26.5028 16.4529 1.4 19.7613 -82.2608 -78.6063
1426 -25.7528 16.4529 1.4 19.0113 -80.7021 -34.3563
1427 -25.0028 16.4529 1.4 18.2614 -75.1051 7.1081
1428 -24.2528 16.4529 1.4 17.5115 -69.0559 -136.307
1429 -23.5028 16.4529 1.4 16.7616 -73.0827 63.2762
1430 -22.7528 16.4529 1.4 16.0116 -70.9344 -99.1446
1431 -22.0028 16.4529 1.4 15.2617 -91.5929 -142.021
1432 -21.2528 16.4529 1.4 14.5119 -70.4842 101.983
1433 -20.5028 16.4529 1.4 13.762 -63.7183 45.8389
1434 -19.7528 16.4529 1.4 13.0121 -63.3295 21.5664
1435 -19.0028 16.4529 1.4 12.2623 -56.6698 -54.3265
1436 -18.2528 16.4529 1.4 11.5124 -64.8904 -1.9797
1437 -17.5028 16.4529 1.4 10.7626 -59.5432 40.1049
1438 -16.7528 16.4529 1.4 10.0129 -58.8981 170.908
1439 -16.0028 16.4529 1.4 9.26311 -51.4639 -126.593
1440 -15.2528 16.4529 1.4 8.51342 -57.7584 -147.935
1441 -14.5028 16.4529 1.4 7.76378 -55.1957 -54.1699
1442 -13.7528 16.4529 1.4 7.01423 -60.8363 -76.1194
1443 -13.0028 16.4529 1.4 6.26477 -52.4106 60.4929
1444 -12.2528 16.4529 1.4 5.51547 -45.7002 138.858
1445 -11.5028 16.4529 1.4 4.76639 -49.4356 173.287
1446 -10.7528 16.4529 1.4 4.01765 -61.7379 -56.3557
1447 -10.0028 16.4529 1.4 3.26949 -52.9175 -26.8388
1448 -9.25282 16.4529 1.4 2.52242 -44.7821 92.2984
1449 -8.50282 16.4529 1.4 1.77781 -40.5931 99.9281
1450 -7.75282 16.4529 1.4 1.04099 -39.3256 118.12
1451 -7.00282 16.4529 1.4 0.362893 -27.5909 -15.0625
1452 -6.25282 16.4529 1.4 0.552022 -30.6588 -168.947
1453 -5.50282 16.4529 1.4 1.266 -36.3644 -148.087
1454 -4.75282 16.4529 1.4 2.00644 -37.031 164.637
1455 -4.00282 16.4529 1.4 2.75206 -35.93 133.308
1456 -3.25282 16.4529 1.4 3.49955 -44.5308 64.1293
1457 -2.50282 16.4529 1.4 4.24793 -49.432 -16.0249
1458 -1.75282 16.4529 1.4 4.99679 -46.5243 -58.9653
1459 -1.00282 16.4529 1.4 5.74595 -44.9536 -103.419
1460 -0.25282 16.4529 1.4 6.49531 -53.3516 148.266
1461 0.49718 16.4529 1.4 7.2448 -48.9913 77.1151
1462 1.24718 16.4529 1.4 7.99438 -53.6463 60.2846
1463 1.99718 16.4529 1.4 8.74403 -59.5944 -0.1195
1464 2.74718 16.4529 1.4 9.49374 -57.7741 -43.4994
1465 3.49718 16.4529 1.4 10.2435 -65.7637 163.533
1466 4.24718 16.4529 1.4 10.9933 -51.5165 120.362
1467 4.99718 16.4529 1.4 11.7431 -56.962 113.246
1468 5.74718 16.4529 1.4 12.4929 -75.8324 58.8967
1469 6.49718 16.4529 1.4 13.2428 -59.2843 -138.988
1470 7.24718 16.4529 1.4 13.9927 -55.7103 -174.419
1471 7.99718 16.4529 1.4 14.7425 -59.8548 103.992
1472 8.74718 16.4529 1.4 15.4924 -64.9978 95.8029
1473 9.49718 16.4529 1.4 16.2423 -62.0725 130.225
1474 10.2472 16.4529 1.4 16.9922 -65.1754 173.883
1475 10.9972 16.4529 1.4 17.7422 -67.0628 14.7262
1476 11.7472 16.4529 1.4 18.4921 -70.8937 -105.671
1477 12.4972 16.4529 1.4 19.242 -72.3427 78.3699
1478 13.2472 16.4529 1.4 19.992 -81.3877 -174.083
1479 13.9972 16.4529 1.4 20.7419 -83.8296 76.6179
1480 14.7472 16.4529 1.4 21.4919 -76.8326 177.561
1481 15.4972 16.4529 1.4 22.2418 -77.4403 -116.672
1482 16.2472 16.4529 1.4 22.9918 -81.094 -132.154
1483 16.9972 16.4529 1.4 23.7417 -80.238 -41.8482
1484 17.7472 16.4529 1.4 24.4917 -83.4724 157.723
1485 18.4972 16.4529 1.4 25.2416 -82.4953 141.678
1486 19.2472 16.4529 1.4 25.9916 -72.6191 37.9809
1487 19.9972 16.4529 1.4 26.7416 -85.973 25.5604
1488 20.7472 16.4529 1.4 27.4915 -77.2924 -90.474
1489 21.4972 16.4529 1.4 28.2415 -78.5033 -66.602
1490 22.2472 16.4529 1.4 28.9915 -95.4759 50.1047
1491 22.9972 16.4529 1.4 29.7414 -92.2413 -51.2453
1492 23.7472 16.4529 1.4 30.4914 -95.4605 -157.297
1493 24.4972 16.4529 1.4 31.2414 -94.526 62.292
1494 25.2472 16.4529 1.4 31.9914 -84.2506 -29.909
1495 25.9972 16.4529 1.4 32.7413 -99.2318 123.789
1496 26.7472 16.4529 1.4 33.4913 -78.7079 125.828
1497 27.4972 16.4529 1.4 34.2413 -87.2775 144.358
1498 28.2472 16.4529 1.4 34.9913 -90.7329 52.8847
1499 28.9972 16.4529 1.4 35.7413 -93.1452 -172.552
1500 29.7472 16.4529 1.4 36.4912 -92.0227 59.0817
1501 30.4972 16.4529 1.4 37.2412 -94.0319 115.463
1502 -28.0028 17.2029 1.4 21.2833 -82.6257 126.689
1503 -27.2528 17.2029 1.4 20.5342 -79.6303 -12.6528
1504 -26.5028 17.2029 1.4 19.7851 -70.5703 -125.163
1505 -25.7528 17.2029 1.4 19.0361 -67.2284 44.7009
1506 -25.0028 17.2029 1.4 18.2872 -74.5978 -24.5699
1507 -24.2528 17.2029 1.4 17.5384 -76.8265 121.168
1508 -23.5028 17.2029 1.4 16.7897 -91.4122 -178.283
1509 -22.7528 17.2029 1.4 16.0411 -88.0722 -41.1009
1510 -22.0028 17.2029 1.4 15.2926 -250 0
1511 -21.2528 17.2029 1.4 14.5443 -85.8118 -153.696
1512 -20.5028 17.2029 1.4 13.7962 -63.6008 128.397
1513 -19.7528 17.2029 1.4 13.0483 -55.5076 137.488
1514 -19.0028 17.2029 1.4 12.3006 -56.5421 174.433
1515 -18.2528 17.2029 1.4 11.5533 -62.0414 -158.361
1516 -17.5028 17.2029 1.4 10.8063 -61.7395 -51.9868
1517 -16.7528 17.2029 1.4 10.0598 -71.5177 171.518
1518 -16.0028 17.2029 1.4 9.31386 -52.917 97.9949
1519 -15.2528 17.2029 1.4 8.56861 -57.8134 101.54
1520 -14.5028 17.2029 1.4 7.82426 -52.8548 94.207
1521 -13.7528 17.2029 1.4 7.08111 -49.5047 -128.69
1522 -13.0028 17.2029 1.4 6.33957 -52.5229 -83.5595
1523 -12.2528 17.2029 1.4 5.60029 -48.9583 -60.6277
1524 -11.5028 17.2029 1.4 4.86428 -57.735 -101.323
1525 -10.7528 17.2029 1.4 4.13332 -51.5183 -66.4874
1526 -10.0028 17.2029 1.4 3.41062 -43.7779 -62.9778
1527 -9.25282 17.2029 1.4 2.70285 -44.7667 -87.3407
1528 -8.50282 17.2029 1.4 2.02569 -45.4434 118.094
1529 -7.75282 17.2029 1.4 1.42353 -40.567 174.918
1530 -7.00282 17.2029 1.4 1.03657 -30.837 179.679
1531 -6.25282 17.2029 1.4 1.11693 -40.6287 -86.4886
1532 -5.50282 17.2029 1.4 1.59548 -41.8954 -25.6347
1533 -4.75282 17.2029 1.4 2.22904 -45.9326 -150.018
1534 -4.00282 17.2029 1.4 2.91833 -47.0724 74.2195
1535 -3.25282 17.2029 1.4 3.63176 -47.8713 33.4559
1536 -2.50282 17.2029 1.4 4.35749 -47.4615 41.3718
1537 -1.75282 17.2029 1.4 5.09026 -48.8165 93.8032
1538 -1.00282 17.2029 1.4 5.82742 -49.0931 61.3416
1539 -0.25282 17.2029 1.4 6.56748 -57.1139 -13.2235
1540 0.49718 17.2029 1.4 7.30957 -48.1139 -65.3252
1541 1.24718 17.2029 1.4 8.05313 -48.8977 -92.7745
1542 1.99718 17.2029 1.4 8.79778 -54.1126 -170.143
1543 2.74718 17.2029 1.4 9.54327 -71.596 -53.3723
1544 3.49718 17.2029 1.4 10.2894 -66.0622 33.8707
1545 4.24718 17.2029 1.4 11.0361 -50.9963 7.95055
1546 4.99718 17.2029 1.4 11.7832 -62.9082 -11.2578
1547 5.74718 17.2029 1.4 12.5306 -51.9187 -31.1694
1548 6.49718 17.2029 1.4 13.2783 -59.0119 -89.9316
1549 7.24718 17.2029 1.4 14.0263 -58.5025 -133.513
1550 7.99718 17.2029 1.4 14.7745 -59.9699 -5.87811
1551 8.74718 17.2029 1.4 15.5228 -56.1237 4.10201
1552 9.49718 17.2029 1.4 16.2713 -62.7386 4.9096
1553 10.2472 17.2029 1.4 17.02 -60.9564 -64.0004
1554 10.9972 17.2029 1.4 17.7687 -68.1413 -61.7709
1555 11.7472 17.2029 1.4 18.5176 -79.5296 -133.967
1556 12.4972 17.2029 1.4 19.2665 -79.5402 125.885
1557 13.2472 17.2029 1.4 20.0155 -78.5131 -134.356
1558 13.9972 17.2029 1.4 20.7646 -77.7356 36.4738
1559 14.7472 17.2029 1.4 21.5138 -87.8049 8.77401
1560 15.4972 17.2029 1.4 22.263 -88.1538 -90.6983
1561 16.2472 17.2029 1.4 23.0122 -72.6045 -4.41242
1562 16.9972 17.2029 1.4 23.7616 -83.9565 68.0466
1563 17.7472 17.2029 1.4 24.5109 -76.6923 114.099
1564 18.4972 17.2029 1.4 25.2603 -77.1789 -63.1808
1565 19.2472 17.2029 1.4 26.0097 -81.1923 165.87
1566 19.9972 17.2029 1.4 26.7592 -84.6514 -135.85
1567 20.7472 17.2029 1.4 27.5087 -88.5305 -44.2366
1568 21.4972 17.2029 1.4 28.2582 -87.6849 102.222
1569 22.2472 17.2029 1.4 29.0077 -79.4894 37.9109
1570 22.9972 17.2029 1.4 29.7573 -79.0495 -52.9519
1571 23.7472 17.2029 1.4 30.5069 -91.3007 -153.11
1572 24.4972 17.2029 1.4 31.2565 -90.8904 82.5599
1573 25.2472 17.2029 1.4 32.0061 -84.8575 -159.877
1574 25.9972 17.2029 1.4 32.7557 -91.134 -74.7908
1575 26.7472 17.2029 1.4 33.5054 -85.5409 -171.868
1576 27.4972 17.2029 1.4 34.2551 -88.4846 -34.5454
1577 28.2472 17.2029 1.4 35.0047 -82.7524 -159.927
1578 28.9972 17.2029 1.4 35.7544 -108.075 164.784
1579 29.7472 17.2029 1.4 36.5042 -88.579 -10.573
1580 30.4972 17.2029 1.4 37.2539 -85.2529 -32.7496
1581 -28.0028 17.9529 1.4 21.3318 -77.5755 20.627
1582 -27.2528 17.9529 1.4 20.5845 -84.7549 74.8026
1583 -26.5028 17.9529 1.4 19.8373 -83.0698 -14.3244
1584 -25.7528 17.9529 1.4 19.0903 -81.3138 128.308
1585 -25.0028 17.9529 1.4 18.3436 -78.586 9.66914
1586 -24.2528 17.9529 1.4 17.5972 -89.1402 112.403
1587 -23.5028 17.9529 1.4 16.8511 -75.8565 95.7884
1588 -22.7528 17.9529 1.4 16.1054 -74.2105 -166.294
1589 -22.0028 17.9529 1.4 15.3601 -69.3934 -16.7602
1590 -21.2528 17.9529 1.4 14.6152 -84.5373 168.772
1591 -20.5028 17.9529 1.4 13.8709 -65.1123 -94.4934
1592 -19.7528 17.9529 1.4 13.1273 -62.2113 -95.4393
1593 -19.0028 17.9529 1.4 12.3844 -54.2918 -15.2421
1594 -18.2528 17.9529 1.4 11.6425 -59.0128 -46.5061
1595 -17.5028 17.9529 1.4 10.9016 -60.6139 99.727
1596 -16.7528 17.9529 1.4 10.1621 -63.0989 -67.4785
1597 -16.0028 17.9529 1.4 9.42422 -62.4022 -171.993
1598 -15.2528 17.9529 1.4 8.68843 -61.6564 -70.2246
1599 -14.5028 17.9529 1.4 7.95531 -55.0763 95.0701
1600 -13.7528 17.9529 1.4 7.22564 -49.906 124.281
1601 -13.0028 17.9529 1.4 6.50061 -50.3903 122.432
1602 -12.2528 17.9529 1.4 5.78196 -87.58 52.3983
1603 -11.5028 17.9529 1.4 5.07238 -59.3567 105.175
1604 -10.7528 17.9529 1.4 4.37631 -52.1634 -38.5827
1605 -10.0028 17.9529 1.4 3.70137 -49.655 -100.098
1606 -9.25282 17.9529 1.4 3.06156 -43.6845 -15.9866
1607 -8.50282 17.9529 1.4 2.48419 -49.9295 -63.289
1608 -7.75282 17.9529 1.4 2.02342 -61.7015 -135.952
1609 -7.00282 17.9529 1.4 1.77265 -40.0638 92.5702
1610 -6.25282 17.9529 1.4 1.8208 -36.5436 -6.84222
1611 -5.50282 17.9529 1.4 2.14787 -43.0675 102.438
1612 -4.75282 17.9529 1.4 2.65262 -44.6881 109.7
1613 -4.00282 17.9529 1.4 3.25337 -40.5024 86.6025
1614 -3.25282 17.9529 1.4 3.90608 -52.8414 11.3339
1615 -2.50282 17.9529 1.4 4.58863 -49.7101 54.2221
1616 -1.75282 17.9529 1.4 5.28947 -54.9735 -159.656
1617 -1.00282 17.9529 1.4 6.00221 -51.4764 -128.304
1618 -0.25282 17.9529 1.4 6.72307 -51.4215 -129.583
1619 0.49718 17.9529 1.4 7.44967 -53.7116 -129.319
1620 1.24718 17.9529 1.4 8.18051 -59.1023 -171.617
1621 1.99718 17.9529 1.4 8.91452 -62.5553 105.076
1622 2.74718 17.9529 1.4 9.651 -63.8202 126.677
1623 3.49718 17.9529 1.4 10.3894 -52.3084 138.289
1624 4.24718 17.9529 1.4 11.1294 -57.6037 152.857
1625 4.99718 17.9529 1.4 11.8706 -51.9896 144.742
1626 5.74718 17.9529 1.4 12.6128 -63.3664 -175.109
1627 6.49718 17.9529 1.4 13.356 -60.2356 46.8324
1628 7.24718 17.9529 1.4 14.0998 -64.8028 -55.4971
1629 7.99718 17.9529 1.4 14.8443 -77.6312 2.59875
1630 8.74718 17.9529 1.4 15.5893 -58.9174 177.489
1631 9.49718 17.9529 1.4 16.3348 -61.4834 176.746
1632 10.2472 17.9529 1.4 17.0806 -64.1008 146.547
1633 10.9972 17.9529 1.4 17.8268 -65.854 164.867
1634 11.7472 17.9529 1.4 18.5733 -68.2295 111.053
1635 12.4972 17.9529 1.4 19.3201 -80.8822 -57.2337
1636 13.2472 17.9529 1.4 20.0671 -73.838 78.65
1637 13.9972 17.9529 1.4 20.8144 -82.188 160.707
1638 14.7472 17.9529 1.4 21.5618 -71.0566 73.673
1639 15.4972 17.9529 1.4 22.3094 -79.4274 -169.07
1640 16.2472 17.9529 1.4 23.0571 -79.301 108.986
1641 16.9972 17.9529 1.4 23.805 -79.3332 -116.32
1642 17.7472 17.9529 1.4 24.5531 -78.9048 78.9263
1643 18.4972 17.9529 1.4 25.3012 -79.701 -126.409
1644 19.2472 17.9529 1.4 26.0494 -78.5384 -26.6796
1645 19.9972 17.9529 1.4 26.7978 -76.1223 -98.9557
1646 20.7472 17.9529 1.4 27.5462 -97.1938 59.9626
1647 21.4972 17.9529 1.4 28.2947 -83.009 19.1753
1648 22.2472 17.9529 1.4 29.0433 -88.139 -10.2705
1649 22.9972 17.9529 1.4 29.792 -74.5103 159.625
1650 23.7472 17.9529 1.4 30.5407 -77.8765 55.0861
1651 24.4972 17.9529 1.4 31.2895 -90.9833 -43.3942
1652 25.2472 17.9529 1.4 32.0384 -85.4251 8.91679
1653 25.9972 17.9529 1.4 32.7873 -81.3628 -90.3503
1654 26.7472 17.9529 1.4 33.5362 -87.6378 152.22
1655 27.4972 17.9529 1.4 34.2852 -95.6595 125.642
1656 28.2472 17.9529 1.4 35.0343 -88.1824 -45.8716
1657 28.9972 17.9529 1.4 35.7833 -72.4488 124.187
1658 29.7472 17.9529 1.4 36.5325 -103.867 -159.434
1659 30.4972 17.9529 1.4 37.2816 -99.1396 -88.8129
1660 -28.0028 18.7029 1.4 21.4065 -83.766 151.316
1661 -27.2528 18.7029 1.4 20.6619 -89.8616 131.588
1662 -26.5028 18.7029 1.4 19.9176 -89.6243 -130.052
1663 -25.7528 18.7029 1.4 19.1738 -90.8843 109.978
1664 -25.0028 18.7029 1.4 18.4305 -87.9029 -159.361
1665 -24.2528 18.7029 1.4 17.6877 -87.1621 -129.882
1666 -23.5028 18.7029 1.4 16.9456 -82.0127 -135.695
1667 -22.7528 18.7029 1.4 16.2042 -75.5696 141.236
1668 -22.0028 18.7029 1.4 15.4636 -80.838 -66.4183
1669 -21.2528 18.7029 1.4 14.724 -77.2996 -77.977
1670 -20.5028 18.7029 1.4 13.9855 -58.4865 157.624
1671 -19.7528 18.7029 1.4 13.2483 -57.5999 36.4821
1672 -19.0028 18.7029 1.4 12.5127 -66.2715 -165.579
1673 -18.2528 18.7029 1.4 11.7788 -73.0646 163.989
1674 -17.5028 18.7029 1.4 11.0471 -58.1887 -108.142
1675 -16.7528 18.7029 1.4 10.318 -53.0375 -15.4062
1676 -16.0028 18.7029 1.4 9.59211 -70.5679 -85.268
1677 -15.2528 18.7029 1.4 8.87027 -57.9223 -92.8738
1678 -14.5028 18.7029 1.4 8.15351 -63.37 -97.4577
1679 -13.7528 18.7029 1.4 7.4433 -50.4929 -159.815
1680 -13.0028 18.7029 1.4 6.74172 -56.4498 135.374
1681 -12.2528 18.7029 1.4 6.05176 -62.9501 110.509
1682 -11.5028 18.7029 1.4 5.3779 -51.4743 -107.565
1683 -10.7528 18.7029 1.4 4.72704 -50.367 91.1569
1684 -10.0028 18.7029 1.4 4.1101 -46.8748 121.792
1685 -9.25282 18.7029 1.4 3.54485 -51.5122 18.7584
1686 -8.50282 18.7029 1.4 3.06007 -49.5144 100.921
1687 -7.75282 18.7029 1.4 2.69945 -49.2066 129.499
1688 -7.00282 18.7029 1.4 2.51696 -37.8351 107.391
1689 -6.25282 18.7029 1.4 2.5511 -38.5646 -34.577
1690 -5.50282 18.7029 1.4 2.79395 -39.8688 47.6723
1691 -4.75282 18.7029 1.4 3.19831 -40.4551 -79.9822
1692 -4.00282 18.7029 1.4 3.71177 -60.6707 117.276
1693 -3.25282 18.7029 1.4 4.29538 -43.5179 -61.9243
1694 -2.50282 18.7029 1.4 4.92426 -53.4869 -131.056
1695 -1.75282 18.7029 1.4 5.58313 -48.0675 -29.1047
1696 -1.00282 18.7029 1.4 6.26254 -49.9924 -77.9259
1697 -0.25282 18.7029 1.4 6.95647 -53.4794 -74.1872
1698 0.49718 18.7029 1.4 7.66097 -59.4639 -92.7445
1699 1.24718 18.7029 1.4 8.37338 -55.6351 42.3945
1700 1.99718 18.7029 1.4 9.09184 -50.4818 79.6672
1701 2.74718 18.7029 1.4 9.81502 -50.0407 105.38
1702 3.49718 18.7029 1.4 10.5419 -55.5417 79.8663
1703 4.24718 18.7029 1.4 11.2719 -56.5144 78.0162
1704 4.99718 18.7029 1.4 12.0043 -60.7071 -21.8608
1705 5.74718 18.7029 1.4 12.7388 -66.0411 -51.3684
1706 6.49718 18.7029 1.4 13.475 -57.9017 -56.5633
1707 7.24718 18.7029 1.4 14.2126 -59.0984 -106.747
1708 7.99718 18.7029 1.4 14.9514 -62.2965 -48.6467
1709 8.74718 18.7029 1.4 15.6914 -71.6559 146.519
1710 9.49718 18.7029 1.4 16.4322 -60.3439 -143.073
1711 10.2472 18.7029 1.4 17.1738 -74.1246 66.197
1712 10.9972 18.7029 1.4 17.9161 -75.749 -54.1914
1713 11.7472 18.7029 1.4 18.6591 -65.5888 -64.9661
1714 12.4972 18.7029 1.4 19.4026 -84.5644 20.65
1715 13.2472 18.7029 1.4 20.1465 -80.1351 -50.1362
1716 13.9972 18.7029 1.4 20.8909 -74.9375 -108.274
1717 14.7472 18.7029 1.4 21.6357 -72.0491 73.7843
1718 15.4972 18.7029 1.4 22.3808 -70.3191 -67.9711
1719 16.2472 18.7029 1.4 23.1263 -74.5055 109.209
1720 16.9972 18.7029 1.4 23.872 -87.1951 130.504
1721 17.7472 18.7029 1.4 24.618 -79.6404 -120.884
1722 18.4972 18.7029 1.4 25.3642 -76.6297 -8.68711
1723 19.2472 18.7029 1.4 26.1107 -80.3226 127.82
1724 19.9972 18.7029 1.4 26.8573 -88.4139 -2.59378
1725 20.7472 18.7029 1.4 27.6041 -82.8514 -53.1091
1726 21.4972 18.7029 1.4 28.3511 -82.4787 -127.676
1727 22.2472 18.7029 1.4 29.0983 -88.005 90.9845
1728 22.9972 18.7029 1.4 29.8455 -82.3088 120.087
1729 23.7472 18.7029 1.4 30.593 -77.0642 -26.9605
1730 24.4972 18.7029 1.4 31.3405 -78.4189 -104.58
1731 25.2472 18.7029 1.4 32.0882 -89.2973 67.6468
1732 25.9972 18.7029 1.4 32.8359 -91.402 -95.0878
1733 26.7472 18.7029 1.4 33.5838 -91.6574 149.326
1734 27.4972 18.7029 1.4 34.3318 -87.3642 -70.3023
1735 28.2472 18.7029 1.4 35.0798 -84.55 -109.188
1736 28.9972 18.7029 1.4 35.8279 -95.2032 178.637
1737 29.7472 18.7029 1.4 36.5761 -89.5687 159.455
1738 30.4972 18.7029 1.4 37.3244 -99.7484 54.0699
1739 -28.0028 19.4529 1.4 21.5072 -96.5875 16.2344
1740 -27.2528 19.4529 1.4 20.7661 -84.0341 58.4434
1741 -26.5028 19.4529 1.4 20.0257 -84.2561 -53.3637
1742 -25.7528 19.4529 1.4 19.2861 -86.5482 -65.3858
1743 -25.0028 19.4529 1.4 18.5472 -90.7786 155.333
1744 -24.2528 19.4529 1.4 17.8094 -79.9611 40.5193
1745 -23.5028 19.4529 1.4 17.0725 -77.0627 69.2961
1746 -22.7528 19.4529 1.4 16.3369 -80.643 26.0618
1747 -22.0028 19.4529 1.4 15.6026 -82.8857 -90.3533
1748 -21.2528 19.4529 1.4 14.8699 -87.0257 123.127
1749 -20.5028 19.4529 1.4 14.1391 -66.1358 141.437
1750 -19.7528 19.4529 1.4 13.4103 -53.4882 -173.772
1751 -19.0028 19.4529 1.4 12.684 -66.0882 90.0201
1752 -18.2528 19.4529 1.4 11.9607 -65.1475 151.601
1753 -17.5028 19.4529 1.4 11.2408 -70.226 -158.562
1754 -16.7528 19.4529 1.4 10.5251 -54.084 25.4258
1755 -16.0028 19.4529 1.4 9.8146 -54.4698 47.4961
1756 -15.2528 19.4529 1.4 9.1104 -50.5322 45.1077
1757 -14.5028 19.4529 1.4 8.41412 -53.9606 -68.8579
1758 -13.7528 19.4529 1.4 7.72791 -53.9968 154.806
1759 -13.0028 19.4529 1.4 7.05468 -49.2624 -11.0245
1760 -12.2528 19.4529 1.4 6.39856 -68.4754 -104.844
1761 -11.5028 19.4529 1.4 5.76538 -50.1892 -67.6013
1762 -10.7528 19.4529 1.4 5.16359 -51.8627 -47.4539
1763 -10.0028 19.4529 1.4 4.60551 -52.9571 92.3643
1764 -9.25282 19.4529 1.4 4.10898 -51.1385 -121.294
1765 -8.50282 19.4529 1.4 3.69889 -62.4404 -3.92389
1766 -7.75282 19.4529 1.4 3.40659 -59.7923 32.5208
1767 -7.00282 19.4529 1.4 3.26387 -42.1485 113.169
1768 -6.25282 19.4529 1.4 3.29027 -52.226 117.903
1769 -5.50282 19.4529 1.4 3.48195 -40.691 137.848
1770 -4.75282 19.4529 1.4 3.81405 -47.4396 -125.222
1771 -4.00282 19.4529 1.4 4.25382 -46.1313 36.8713
1772 -3.25282 19.4529 1.4 4.77159 -55.4267 14.5655
1773 -2.50282 19.4529 1.4 5.34473 -48.0027 89.3523
1774 -1.75282 19.4529 1.4 5.95728 -51.1531 41.1186
1775 -1.00282 19.4529 1.4 6.59827 -51.2769 -123.558
1776 -0.25282 19.4529 1.4 7.26018 -69.5371 158.021
1777 0.49718 19.4529 1.4 7.93777 -60.1683 -155.667
1778 1.24718 19.4529 1.4 8.62736 -70.0764 117.321
1779 1.99718 19.4529 1.4 9.32627 -61.2117 116.568
1780 2.74718 19.4529 1.4 10.0326 -57.1583 -164.956
1781 3.49718 19.4529 1.4 10.7448 -61.4878 -166.935
1782 4.24718 19.4529 1.4 11.4618 -60.7627 -124.046
1783 4.99718 19.4529 1.4 12.1828 -59.3923 -50.4327
1784 5.74718 19.4529 1.4 12.9071 -60.1027 -97.1621
1785 6.49718 19.4529 1.4 13.6342 -53.2715 -49.737
1786 7.24718 19.4529 1.4 14.3637 -63.3061 -168.654
1787 7.99718 19.4529 1.4 15.0952 -58.5529 -70.8229
1788 8.74718 19.4529 1.4 15.8283 -65.7905 -128.603
1789 9.49718 19.4529 1.4 16.5631 -64.2067 -134.513
1790 10.2472 19.4529 1.4 17.2991 -72.9601 -145.862
1791 10.9972 19.4529 1.4 18.0362 -69.0424 80.1507
1792 11.7472 19.4529 1.4 18.7744 -67.3297 99.6655
1793 12.4972 19.4529 1.4 19.5135 -71.5605 104.052
1794 13.2472 19.4529 1.4 20.2534 -87.1851 -131.533
1795 13.9972 19.4529 1.4 20.994 -74.0104 31.3012
1796 14.7472 19.4529 1.4 21.7352 -69.6215 -35.0565
1797 15.4972 19.4529 1.4 22.4771 -74.1586 -132.429
1798 16.2472 19.4529 1.4 23.2194 -77.6291 84.7635
1799 16.9972 19.4529 1.4 23.9623 -82.9887 170.053
1800 17.7472 19.4529 1.4 24.7055 -76.7845 -52.1545
1801 18.4972 19.4529 1.4 25.4492 -73.7502 3.7525
1802 19.2472 19.4529 1.4 26.1932 -82.5971 95.9536
1803 19.9972 19.4529 1.4 26.9376 -84.6949 -51.8798
1804 20.7472 19.4529 1.4 27.6822 -78.2605 -171.321
1805 21.4972 19.4529 1.4 28.4272 -95.7037 -23.2769
1806 22.2472 19.4529 1.4 29.1724 -74.0233 -132.47
1807 22.9972 19.4529 1.4 29.9178 -77.1725 -105.376
1808 23.7472 19.4529 1.4 30.6635 -76.5539 -160.171
1809 24.4972 19.4529 1.4 31.4093 -88.2262 -166.961
1810 25.2472 19.4529 1.4 32.1554 -80.5995 103.916
1811 25.9972 19.4529 1.4 32.9016 -78.7774 -48.7102
1812 26.7472 19.4529 1.4 33.648 -83.5536 42.8868
1813 27.4972 19.4529 1.4 34.3946 -83.2643 69.1421
1814 28.2472 19.4529 1.4 35.1413 -104.409 -101.252
1815 28.9972 19.4529 1.4 35.8881 -91.9893 -152.81
1816 29.7472 19.4529 1.4 36.6351 -101.864 -47.0104
1817 30.4972 19.4529 1.4 37.3822 -86.8696 71.4978
1818 -28.0028 20.2029 1.4 21.6333 -96.5638 82.2422
1819 -27.2528 20.2029 1.4 20.8967 -92.8184 -161.975
1820 -26.5028 20.2029 1.4 20.1611 -81.1058 -41.1999
1821 -25.7528 20.2029 1.4 19.4266 -79.1947 -127.355
1822 -25.0028 20.2029 1.4 18.6934 -87.3959 106.269
1823 -24.2528 20.2029 1.4 17.9615 -89.3468 -86.0169
1824 -23.5028 20.2029 1.4 17.2312 -104.51 77.4319
1825 -22.7528 20.2029 1.4 16.5026 -81.1698 -1.81963
1826 -22.0028 20.2029 1.4 15.7761 -90.3104 -66.8815
1827 -21.2528 20.2029 1.4 15.0518 -90.1271 139.905
1828 -20.5028 20.2029 1.4 14.3302 -69.7077 -23.2478
1829 -19.7528 20.2029 1.4 13.6117 -64.2755 -129.613
1830 -19.0028 20.2029 1.4 12.8968 -65.4016 -74.3659
1831 -18.2528 20.2029 1.4 12.1861 -59.058 123.308
1832 -17.5028 20.2029 1.4 11.4803 -63.4489 -178.022
1833 -16.7528 20.2029 1.4 10.7806 -52.97 148.514
1834 -16.0028 20.2029 1.4 10.0881 -53.3176 -166.242
1835 -15.2528 20.2029 1.4 9.40437 -54.3065 -176.935
1836 -14.5028 20.2029 1.4 8.73157 -53.7898 16.1764
1837 -13.7528 20.2029 1.4 8.07238 -51.4521 -115.617
1838 -13.0028 20.2029 1.4 7.43043 -56.5218 53.4743
1839 -12.2528 20.2029 1.4 6.81061 -55.6383 94.9442
1840 -11.5028 20.2029 1.4 6.21952 -51.2337 46.597
1841 -10.7528 20.2029 1.4 5.66617 -55.5873 -57.7282
1842 -10.0028 20.2029 1.4 5.1627 -51.4613 -99.5332
1843 -9.25282 20.2029 1.4 4.7251 -50.1834 167.113
1844 -8.50282 20.2029 1.4 4.37317 -60.0546 168.772
1845 -7.75282 20.2029 1.4 4.12888 -57.0345 54.1548
1846 -7.00282 20.2029 1.4 4.01194 -47.8179 54.3176
1847 -6.25282 20.2029 1.4 4.03345 -45.0926 -76.1591
1848 -5.50282 20.2029 1.4 4.19127 -66.0257 -160.549
1849 -4.75282 20.2029 1.4 4.47099 -53.1577 -13.4137
1850 -4.00282 20.2029 1.4 4.85158 -42.4476 63.5618
1851 -3.25282 20.2029 1.4 5.31139 -51.045 -162.648
1852 -2.50282 20.2029 1.4 5.83171 -48.9862 105.678
1853 -1.75282 20.2029 1.4 6.39781 -50.6361 -171.491
1854 -1.00282 20.2029 1.4 6.99857 -47.3321 -110.968
1855 -0.25282 20.2029 1.4 7.62581 -53.4324 77.3623
1856 0.49718 20.2029 1.4 8.27351 -49.0707 -10.9811
1857 1.24718 20.2029 1.4 8.93723 -58.9316 60.881
1858 1.99718 20.2029 1.4 9.61364 -52.9946 -3.36342
1859 2.74718 20.2029 1.4 10.3003 -53.832 -8.48206
1860 3.49718 20.2029 1.4 10.9951 -68.9565 153.347
1861 4.24718 20.2029 1.4 11.6968 -57.5162 -34.1299
1862 4.99718 20.2029 1.4 12.4042 -64.5537 -3.04914
1863 5.74718 20.2029 1.4 13.1163 -56.2335 62.0497
1864 6.49718 20.2029 1.4 13.8324 -64.2577 88.5398
1865 7.24718 20.2029 1.4 14.5519 -74.3378 -170.198
1866 7.99718 20.2029 1.4 15.2744 -68.2766 -33.3332
1867 8.74718 20.2029 1.4 15.9994 -62.5664 142.764
1868 9.49718 20.2029 1.4 16.7266 -71.2308 4.94571
1869 10.2472 20.2029 1.4 17.4557 -62.2764 64.3831
1870 10.9972 20.2029 1.4 18.1865 -71.6498 123.209
1871 11.7472 20.2029 1.4 18.9188 -69.0688 -162.699
1872 12.4972 20.2029 1.4 19.6525 -95.7625 -25.4237
1873 13.2472 20.2029 1.4 20.3873 -70.3289 -142.552
1874 13.9972 20.2029 1.4 21.1232 -77.2196 -151.704
1875 14.7472 20.2029 1.4 21.8601 -85.7131 -167.349
1876 15.4972 20.2029 1.4 22.5978 -71.0949 154.011
1877 16.2472 20.2029 1.4 23.3363 -79.7142 -15.048
1878 16.9972 20.2029 1.4 24.0756 -76.2186 3.95204
1879 17.7472 20.2029 1.4 24.8154 -74.1948 -152.847
1880 18.4972 20.2029 1.4 25.5559 -71.1826 52.1199
1881 19.2472 20.2029 1.4 26.2969 -81.8699 19.7826
1882 19.9972 20.2029 1.4 27.0384 -82.2887 142.513
1883 20.7472 20.2029 1.4 27.7804 -81.0085 165.613
1884 21.4972 20.2029 1.4 28.5227 -76.8345 -27.54
1885 22.2472 20.2029 1.4 29.2655 -83.0577 -24.3926
1886 22.9972 20.2029 1.4 30.0086 -98.0481 34.9848
1887 23.7472 20.2029 1.4 30.7521 -83.0453 -36.2735
1888 24.4972 20.2029 1.4 31.4958 -86.4594 -59.0783
1889 25.2472 20.2029 1.4 32.2399 -83.7254 -68.8627
1890 25.9972 20.2029 1.4 32.9842 -88.1389 -67.5514
1891 26.7472 20.2029 1.4 33.7288 -85.4236 127.091
1892 27.4972 20.2029 1.4 34.4736 -79.6047 88.6473
1893 28.2472 20.2029 1.4 35.2187 -85.0996 -25.7124
1894 28.9972 20.2029 1.4 35.9639 -102.226 -27.6316
1895 29.7472 20.2029 1.4 36.7093 -82.3672 102.427
1896 30.4972 20.2029 1.4 37.4549 -99.2337 58.1738
