#Rx
# X(m), Y(m), Z(m), Distance(m), Power (dBm) Phase (deg)
1 -28.0028 2.95289 1.4 35.4418 -137.13 123.175
2 -27.2528 2.95289 1.4 34.7367 -143.309 -16.0741
3 -26.5028 2.95289 1.4 34.0335 -147.961 -3.05037
4 -25.7528 2.95289 1.4 33.3324 -162.969 129.209
5 -25.0028 2.95289 1.4 32.6335 -157.511 -107.346
6 -24.2528 2.95289 1.4 31.9369 -138.893 46.9444
7 -23.5028 2.95289 1.4 31.2427 -136.101 -136.918
8 -22.7528 2.95289 1.4 30.5512 -141.61 -20.9797
9 -22.0028 2.95289 1.4 29.8625 -139.496 155.113
10 -21.2528 2.95289 1.4 29.1769 -140.212 -40.2281
11 -20.5028 2.95289 1.4 28.4945 -126.866 -76.1599
12 -19.7528 2.95289 1.4 27.8155 -105.534 60.7387
13 -19.0028 2.95289 1.4 27.1403 -105.103 39.7569
14 -18.2528 2.95289 1.4 26.4692 -105.47 6.08203
15 -17.5028 2.95289 1.4 25.8024 -101.788 -176.653
16 -16.7528 2.95289 1.4 25.1402 -250 0
17 -16.0028 2.95289 1.4 24.4831 -250 0
18 -15.2528 2.95289 1.4 23.8316 -250 0
19 -14.5028 2.95289 1.4 23.1859 -250 0
20 -13.7528 2.95289 1.4 22.5468 -83.105 -87.0023
21 -13.0028 2.95289 1.4 21.9146 -70.3005 -135.861
22 -12.2528 2.95289 1.4 21.2901 -75.961 -39.9674
23 -11.5028 2.95289 1.4 20.674 -71.5162 -35.143
24 -10.7528 2.95289 1.4 20.067 -105.654 121.391
25 -10.0028 2.95289 1.4 19.4699 -105.731 170.132
26 -9.25282 2.95289 1.4 18.8838 -104.553 109.043
27 -8.50282 2.95289 1.4 18.3096 -85.2405 -8.19424
28 -7.75282 2.95289 1.4 17.7485 -75.6225 70.4527
29 -7.00282 2.95289 1.4 17.2019 -72.11 -109.83
30 -6.25282 2.95289 1.4 16.671 -100.624 68.0542
31 -5.50282 2.95289 1.4 16.1576 -95.9402 47.4624
32 -4.75282 2.95289 1.4 15.6632 -100.391 -108.197
33 -4.00282 2.95289 1.4 15.1898 -120.869 -177.636
34 -3.25282 2.95289 1.4 14.7394 -62.9074 171.471
35 -2.50282 2.95289 1.4 14.3141 -69.9836 119.687
36 -1.75282 2.95289 1.4 13.9163 -92.5471 -29.646
37 -1.00282 2.95289 1.4 13.5483 -250 0
38 -0.25282 2.95289 1.4 13.2127 -86.8545 -29.4748
39 0.49718 2.95289 1.4 12.912 -69.0368 -131.634
40 1.24718 2.95289 1.4 12.6487 -60.9337 -147.817
41 1.99718 2.95289 1.4 12.4251 -63.8746 109.562
42 2.74718 2.95289 1.4 12.2435 -62.9676 -179.738
43 3.49718 2.95289 1.4 12.1056 -70.0112 12.6354
44 4.24718 2.95289 1.4 12.0131 -62.0108 -142.401
45 4.99718 2.95289 1.4 11.967 -59.6659 -139.892
46 5.74718 2.95289 1.4 11.9678 -60.188 36.7241
47 6.49718 2.95289 1.4 12.0155 -57.2921 -92.5598
48 7.24718 2.95289 1.4 12.1096 -57.35 141.586
49 7.99718 2.95289 1.4 12.2489 -61.149 83.4798
50 8.74718 2.95289 1.4 12.432 -61.7661 -74.2869
51 9.49718 2.95289 1.4 12.657 -63.2249 -53.0727
52 10.2472 2.95289 1.4 12.9216 -74.7533 -47.3616
53 10.9972 2.95289 1.4 13.2236 -69.547 -9.37904
54 11.7472 2.95289 1.4 13.5603 -68.5701 30.7801
55 12.4972 2.95289 1.4 13.9293 -66.1245 7.77051
56 13.2472 2.95289 1.4 14.3281 -65.1033 -60.6245
57 13.9972 2.95289 1.4 14.7543 -101.765 156.585
58 14.7472 2.95289 1.4 15.2055 -112.483 96.8527
59 15.4972 2.95289 1.4 15.6797 -80.2696 93.9129
60 16.2472 2.95289 1.4 16.1747 -79.9072 137.887
61 16.9972 2.95289 1.4 16.6888 -77.9794 -136.977
62 17.7472 2.95289 1.4 17.2202 -110.449 10.7351
63 18.4972 2.95289 1.4 17.7673 -110.573 124.519
64 19.2472 2.95289 1.4 18.3289 -125.244 -18.3398
65 19.9972 2.95289 1.4 18.9035 -102.242 -166.858
66 20.7472 2.95289 1.4 19.49 -76.3959 -31.1687
67 21.4972 2.95289 1.4 20.0874 -79.1682 -112.951
68 22.2472 2.95289 1.4 20.6948 -76.6874 92.0503
69 22.9972 2.95289 1.4 21.3112 -101.37 164.163
70 23.7472 2.95289 1.4 21.936 -250 0
71 24.4972 2.95289 1.4 22.5684 -250 0
72 25.2472 2.95289 1.4 23.2078 -250 0
73 25.9972 2.95289 1.4 23.8536 -101.209 -88.175
74 26.7472 2.95289 1.4 24.5054 -87.6856 -155.891
75 27.4972 2.95289 1.4 25.1626 -250 0
76 28.2472 2.95289 1.4 25.8249 -250 0
77 28.9972 2.95289 1.4 26.4919 -250 0
78 29.7472 2.95289 1.4 27.1632 -250 0
79 30.4972 2.95289 1.4 27.8385 -250 0
80 -28.0028 3.70289 1.4 35.1957 -141.284 -10.589
81 -27.2528 3.70289 1.4 34.4856 -152.238 -36.5414
82 -26.5028 3.70289 1.4 33.7772 -141.563 -2.98496
83 -25.7528 3.70289 1.4 33.0707 -145.038 -128.685
84 -25.0028 3.70289 1.4 32.3661 -169.845 -68.2782
85 -24.2528 3.70289 1.4 31.6636 -137.047 26.1408
86 -23.5028 3.70289 1.4 30.9633 -131.866 -131.552
87 -22.7528 3.70289 1.4 30.2655 -134.317 -99.568
88 -22.0028 3.70289 1.4 29.5701 -142.032 -150.656
89 -21.2528 3.70289 1.4 28.8775 -139.078 -11.8368
90 -20.5028 3.70289 1.4 28.1879 -107.555 -131.746
91 -19.7528 3.70289 1.4 27.5013 -102.042 113.394
92 -19.0028 3.70289 1.4 26.8182 -106.67 134.33
93 -18.2528 3.70289 1.4 26.1388 -102.823 80.5972
94 -17.5028 3.70289 1.4 25.4633 -103.65 -171.434
95 -16.7528 3.70289 1.4 24.7921 -250 0
96 -16.0028 3.70289 1.4 24.1256 -250 0
97 -15.2528 3.70289 1.4 23.4641 -250 0
98 -14.5028 3.70289 1.4 22.8081 -250 0
99 -13.7528 3.70289 1.4 22.158 -83.2784 -5.18934
100 -13.0028 3.70289 1.4 21.5144 -83.7623 66.3933
101 -12.2528 3.70289 1.4 20.878 -71.1708 90.0253
102 -11.5028 3.70289 1.4 20.2493 -72.6524 125.447
103 -10.7528 3.70289 1.4 19.6291 -71.2526 161.155
104 -10.0028 3.70289 1.4 19.0183 -70.7519 162.067
105 -9.25282 3.70289 1.4 18.4178 -94.2276 -59.35
106 -8.50282 3.70289 1.4 17.8287 -76.3766 -19.5739
107 -7.75282 3.70289 1.4 17.252 -80.7919 -133.814
108 -7.00282 3.70289 1.4 16.689 -69.8716 -53.017
109 -6.25282 3.70289 1.4 16.1413 -69.9579 141.386
110 -5.50282 3.70289 1.4 15.6105 -107.495 -124.509
111 -4.75282 3.70289 1.4 15.0982 -90.2587 -55.2646
112 -4.00282 3.70289 1.4 14.6065 -96.4806 34.6375
113 -3.25282 3.70289 1.4 14.1375 -70.6729 53.5263
114 -2.50282 3.70289 1.4 13.6936 -89.1804 96.0555
115 -1.75282 3.70289 1.4 13.2772 -70.5417 -139.659
116 -1.00282 3.70289 1.4 12.891 -250 0
117 -0.25282 3.70289 1.4 12.5378 -85.5713 15.5113
118 0.49718 3.70289 1.4 12.2205 -66.7533 -3.05169
119 1.24718 3.70289 1.4 11.9419 -73.6007 -51.1315
120 1.99718 3.70289 1.4 11.7048 -62.6874 52.601
121 2.74718 3.70289 1.4 11.5118 -83.4503 47.7615
122 3.49718 3.70289 1.4 11.3651 -61.1628 23.4107
123 4.24718 3.70289 1.4 11.2666 -70.052 74.3285
124 4.99718 3.70289 1.4 11.2174 -65.8097 160.688
125 5.74718 3.70289 1.4 11.2182 -66.6346 -11.0312
126 6.49718 3.70289 1.4 11.2691 -58.1608 -163.745
127 7.24718 3.70289 1.4 11.3693 -53.1739 130.008
128 7.99718 3.70289 1.4 11.5176 -60.4195 99.8588
129 8.74718 3.70289 1.4 11.7122 -60.5176 -120.986
130 9.49718 3.70289 1.4 11.9507 -62.6044 -96.5259
131 10.2472 3.70289 1.4 12.2306 -72.8259 -21.0849
132 10.9972 3.70289 1.4 12.5492 -69.2221 109.634
133 11.7472 3.70289 1.4 12.9036 -71.1009 -169.86
134 12.4972 3.70289 1.4 13.2908 -70.7519 81.2281
135 13.2472 3.70289 1.4 13.7082 -59.9076 -61.8544
136 13.9972 3.70289 1.4 14.1531 -114.35 -60.5743
137 14.7472 3.70289 1.4 14.6229 -102.797 -145.444
138 15.4972 3.70289 1.4 15.1153 -99.0223 -162.47
139 16.2472 3.70289 1.4 15.6282 -89.772 158.336
140 16.9972 3.70289 1.4 16.1597 -78.9824 -27.258
141 17.7472 3.70289 1.4 16.7079 -114.181 -13.9968
142 18.4972 3.70289 1.4 17.2713 -110.855 146.07
143 19.2472 3.70289 1.4 17.8485 -110.006 -82.827
144 19.9972 3.70289 1.4 18.4381 -109.875 33.004
145 20.7472 3.70289 1.4 19.0389 -101.827 -50.332
146 21.4972 3.70289 1.4 19.6501 -75.7438 -165.552
147 22.2472 3.70289 1.4 20.2705 -77.5667 125.158
148 22.9972 3.70289 1.4 20.8995 -74.316 -25.6331
149 23.7472 3.70289 1.4 21.5362 -92.2176 35.7499
150 24.4972 3.70289 1.4 22.18 -250 0
151 25.2472 3.70289 1.4 22.8303 -91.6059 -4.46954
152 25.9972 3.70289 1.4 23.4865 -95.9265 -96.8066
153 26.7472 3.70289 1.4 24.1482 -250 0
154 27.4972 3.70289 1.4 24.8149 -250 0
155 28.2472 3.70289 1.4 25.4862 -250 0
156 28.9972 3.70289 1.4 26.1618 -250 0
157 29.7472 3.70289 1.4 26.8414 -250 0
158 30.4972 3.70289 1.4 27.5246 -250 0
159 -28.0028 4.45289 1.4 34.964 -144.204 137.877
160 -27.2528 4.45289 1.4 34.2491 -139.213 -122.773
161 -26.5028 4.45289 1.4 33.5358 -143.228 -125.675
162 -25.7528 4.45289 1.4 32.824 -172.652 64.0966
163 -25.0028 4.45289 1.4 32.114 -162.307 -107.264
164 -24.2528 4.45289 1.4 31.4059 -139.927 -4.91909
165 -23.5028 4.45289 1.4 30.6997 -132.544 -107.214
166 -22.7528 4.45289 1.4 29.9957 -144.964 65.3555
167 -22.0028 4.45289 1.4 29.294 -144.043 -117.134
168 -21.2528 4.45289 1.4 28.5947 -135.24 6.1106
169 -20.5028 4.45289 1.4 27.898 -104.317 86.6611
170 -19.7528 4.45289 1.4 27.2042 -97.3855 -84.8179
171 -19.0028 4.45289 1.4 26.5135 -105.749 -81.9956
172 -18.2528 4.45289 1.4 25.826 -106.399 132.061
173 -17.5028 4.45289 1.4 25.1421 -104.024 -40.2313
174 -16.7528 4.45289 1.4 24.4621 -250 0
175 -16.0028 4.45289 1.4 23.7863 -250 0
176 -15.2528 4.45289 1.4 23.1151 -250 0
177 -14.5028 4.45289 1.4 22.4489 -250 0
178 -13.7528 4.45289 1.4 21.7881 -89.4123 -77.761
179 -13.0028 4.45289 1.4 21.1333 -91.1103 54.2533
180 -12.2528 4.45289 1.4 20.485 -89.4117 160.139
181 -11.5028 4.45289 1.4 19.8439 -74.4241 -21.8558
182 -10.7528 4.45289 1.4 19.2106 -77.4974 -63.4142
183 -10.0028 4.45289 1.4 18.5861 -70.7833 -30.3412
184 -9.25282 4.45289 1.4 17.9711 -70.1338 37.0729
185 -8.50282 4.45289 1.4 17.3668 -90.3709 -163.018
186 -7.75282 4.45289 1.4 16.7742 -102.544 81.085
187 -7.00282 4.45289 1.4 16.1947 -83.4545 66.7726
188 -6.25282 4.45289 1.4 15.6297 -69.6737 -171.283
189 -5.50282 4.45289 1.4 15.0809 -72.6369 25.2202
190 -4.75282 4.45289 1.4 14.55 -101.49 -37.6054
191 -4.00282 4.45289 1.4 14.0391 -97.8674 115.004
192 -3.25282 4.45289 1.4 13.5505 -85.3264 -126.434
193 -2.50282 4.45289 1.4 13.0866 -76.9309 147.894
194 -1.75282 4.45289 1.4 12.6502 -65.6116 -85.4257
195 -1.00282 4.45289 1.4 12.2443 -87.9344 -92.1713
196 -0.25282 4.45289 1.4 11.8719 -96.2889 56.3838
197 0.49718 4.45289 1.4 11.5363 -64.327 154.039
198 1.24718 4.45289 1.4 11.2407 -70.6519 80.6339
199 1.99718 4.45289 1.4 10.9886 -67.554 68.9034
200 2.74718 4.45289 1.4 10.7827 -75.3178 -3.71436
201 3.49718 4.45289 1.4 10.626 -69.6552 -71.7934
202 4.24718 4.45289 1.4 10.5205 -63.4044 -106.848
203 4.99718 4.45289 1.4 10.4678 -63.5951 -126.352
204 5.74718 4.45289 1.4 10.4687 -70.0681 -44.0771
205 6.49718 4.45289 1.4 10.5232 -58.4724 -16.3908
206 7.24718 4.45289 1.4 10.6305 -53.8369 152.852
207 7.99718 4.45289 1.4 10.7889 -63.7904 -38.7323
208 8.74718 4.45289 1.4 10.9964 -60.4728 -144.773
209 9.49718 4.45289 1.4 11.2501 -58.7635 -178.903
210 10.2472 4.45289 1.4 11.547 -72.76 125.642
211 10.9972 4.45289 1.4 11.8839 -65.1773 -98.5414
212 11.7472 4.45289 1.4 12.2575 -71.644 -157.889
213 12.4972 4.45289 1.4 12.6646 -59.4716 153.027
214 13.2472 4.45289 1.4 13.1019 -59.0604 -113.162
215 13.9972 4.45289 1.4 13.5667 -104.169 162.96
216 14.7472 4.45289 1.4 14.0561 -87.1254 2.97103
217 15.4972 4.45289 1.4 14.5677 -93.9449 6.89388
218 16.2472 4.45289 1.4 15.0992 -112.932 136.625
219 16.9972 4.45289 1.4 15.6487 -108.003 -51.6637
220 17.7472 4.45289 1.4 16.2142 -123.162 -84.749
221 18.4972 4.45289 1.4 16.7942 -116.052 84.2443
222 19.2472 4.45289 1.4 17.3872 -99.4616 -142.149
223 19.9972 4.45289 1.4 17.9919 -109.868 55.2787
224 20.7472 4.45289 1.4 18.6072 -94.9034 -0.658722
225 21.4972 4.45289 1.4 19.232 -101.733 -106.016
226 22.2472 4.45289 1.4 19.8655 -74.7759 75.5892
227 22.9972 4.45289 1.4 20.5069 -77.4965 0.0880052
228 23.7472 4.45289 1.4 21.1554 -75.4271 -144.91
229 24.4972 4.45289 1.4 21.8105 -81.0476 25.3772
230 25.2472 4.45289 1.4 22.4714 -82.3325 153.25
231 25.9972 4.45289 1.4 23.1378 -250 0
232 26.7472 4.45289 1.4 23.8092 -250 0
233 27.4972 4.45289 1.4 24.4852 -250 0
234 28.2472 4.45289 1.4 25.1653 -250 0
235 28.9972 4.45289 1.4 25.8493 -250 0
236 29.7472 4.45289 1.4 26.5369 -250 0
237 30.4972 4.45289 1.4 27.2277 -250 0
238 -28.0028 5.20289 1.4 34.747 -149.842 -144.644
239 -27.2528 5.20289 1.4 34.0275 -142.751 -69.9638
240 -26.5028 5.20289 1.4 33.3094 -148.616 -11.1189
241 -25.7528 5.20289 1.4 32.5927 -144.379 45.5424
242 -25.0028 5.20289 1.4 31.8776 -143.388 37.3431
243 -24.2528 5.20289 1.4 31.1641 -137.171 -56.5926
244 -23.5028 5.20289 1.4 30.4523 -131.97 -137.625
245 -22.7528 5.20289 1.4 29.7424 -140.612 -59.6586
246 -22.0028 5.20289 1.4 29.0346 -145.124 165.958
247 -21.2528 5.20289 1.4 28.3289 -137.069 49.9704
248 -20.5028 5.20289 1.4 27.6255 -97.605 162.458
249 -19.7528 5.20289 1.4 26.9247 -108.642 -132.823
250 -19.0028 5.20289 1.4 26.2266 -104.574 47.0424
251 -18.2528 5.20289 1.4 25.5314 -108.812 134.574
252 -17.5028 5.20289 1.4 24.8394 -107.311 -164.431
253 -16.7528 5.20289 1.4 24.1509 -250 0
254 -16.0028 5.20289 1.4 23.4661 -250 0
255 -15.2528 5.20289 1.4 22.7855 -250 0
256 -14.5028 5.20289 1.4 22.1093 -250 0
257 -13.7528 5.20289 1.4 21.4381 -250 0
258 -13.0028 5.20289 1.4 20.7723 -78.7476 8.00703
259 -12.2528 5.20289 1.4 20.1123 -89.0601 -104.304
260 -11.5028 5.20289 1.4 19.4589 -78.691 -91.3853
261 -10.7528 5.20289 1.4 18.8127 -75.314 -89.5667
262 -10.0028 5.20289 1.4 18.1745 -76.4324 -175.914
263 -9.25282 5.20289 1.4 17.5451 -75.81 -176.2
264 -8.50282 5.20289 1.4 16.9256 -74.3307 -136.244
265 -7.75282 5.20289 1.4 16.317 -111.994 -165.086
266 -7.00282 5.20289 1.4 15.7207 -98.9464 -137.383
267 -6.25282 5.20289 1.4 15.138 -79.4668 -81.9015
268 -5.50282 5.20289 1.4 14.5706 -70.246 80.4298
269 -4.75282 5.20289 1.4 14.0204 -69.2996 -74.8572
270 -4.00282 5.20289 1.4 13.4895 -141.803 5.54245
271 -3.25282 5.20289 1.4 12.9802 -90.1922 99.9146
272 -2.50282 5.20289 1.4 12.4952 -79.4384 21.4275
273 -1.75282 5.20289 1.4 12.0374 -65.3752 -86.9421
274 -1.00282 5.20289 1.4 11.61 -64.6564 81.4141
275 -0.25282 5.20289 1.4 11.2166 -78.2621 163.405
276 0.49718 5.20289 1.4 10.8607 -68.3437 19.8952
277 1.24718 5.20289 1.4 10.5463 -68.1102 -48.2308
278 1.99718 5.20289 1.4 10.2771 -79.8459 17.4925
279 2.74718 5.20289 1.4 10.0567 -73.4018 -0.604262
280 3.49718 5.20289 1.4 9.88847 -78.9868 -151.894
281 4.24718 5.20289 1.4 9.77502 -58.6514 59.1531
282 4.99718 5.20289 1.4 9.71829 -56.2347 153.267
283 5.74718 5.20289 1.4 9.71927 -71.7234 -163.116
284 6.49718 5.20289 1.4 9.77795 -58.269 -101.217
285 7.24718 5.20289 1.4 9.8933 -54.0598 149.019
286 7.99718 5.20289 1.4 10.0634 -55.8321 -2.48367
287 8.74718 5.20289 1.4 10.2855 -68.0347 144.738
288 9.49718 5.20289 1.4 10.5563 -60.007 79.6791
289 10.2472 5.20289 1.4 10.8722 -68.2729 -40.2985
290 10.9972 5.20289 1.4 11.2293 -64.8882 0.655472
291 11.7472 5.20289 1.4 11.624 -68.2415 -75.5032
292 12.4972 5.20289 1.4 12.0524 -67.4486 141.189
293 13.2472 5.20289 1.4 12.5112 -72.3676 -38.3608
294 13.9972 5.20289 1.4 12.9971 -87.7603 172.961
295 14.7472 5.20289 1.4 13.5072 -91.002 170.049
296 15.4972 5.20289 1.4 14.0388 -80.745 -115.597
297 16.2472 5.20289 1.4 14.5896 -111.513 22.836
298 16.9972 5.20289 1.4 15.1575 -113.418 145.995
299 17.7472 5.20289 1.4 15.7407 -80.9481 -66.6748
300 18.4972 5.20289 1.4 16.3375 -99.3287 22.4116
301 19.2472 5.20289 1.4 16.9465 -123.45 -156.551
302 19.9972 5.20289 1.4 17.5664 -92.8298 -100.849
303 20.7472 5.20289 1.4 18.1961 -103.36 -28.7342
304 21.4972 5.20289 1.4 18.8346 -102.451 40.753
305 22.2472 5.20289 1.4 19.481 -107.259 96.66
306 22.9972 5.20289 1.4 20.1346 -87.5943 -110.85
307 23.7472 5.20289 1.4 20.7948 -70.3126 -130.891
308 24.4972 5.20289 1.4 21.4608 -68.8034 169.931
309 25.2472 5.20289 1.4 22.1322 -250 0
310 25.9972 5.20289 1.4 22.8086 -250 0
311 26.7472 5.20289 1.4 23.4893 -103.73 27.778
312 27.4972 5.20289 1.4 24.1742 -250 0
313 28.2472 5.20289 1.4 24.8629 -250 0
314 28.9972 5.20289 1.4 25.555 -250 0
315 29.7472 5.20289 1.4 26.2503 -250 0
316 30.4972 5.20289 1.4 26.9485 -250 0
317 -28.0028 5.95289 1.4 34.5449 -167.621 35.3984
318 -27.2528 5.95289 1.4 33.8211 -153.031 -133.36
319 -26.5028 5.95289 1.4 33.0985 -142.889 151.877
320 -25.7528 5.95289 1.4 32.3772 -149.332 -170.845
321 -25.0028 5.95289 1.4 31.6572 -117.139 -155.166
322 -24.2528 5.95289 1.4 30.9386 -132.81 -131.448
323 -23.5028 5.95289 1.4 30.2215 -134.636 -76.3002
324 -22.7528 5.95289 1.4 29.5061 -136.544 -46.3129
325 -22.0028 5.95289 1.4 28.7924 -137.369 -75.1999
326 -21.2528 5.95289 1.4 28.0806 -148.091 -140.439
327 -20.5028 5.95289 1.4 27.3709 -85.5443 169.659
328 -19.7528 5.95289 1.4 26.6634 -119.275 36.5855
329 -19.0028 5.95289 1.4 25.9582 -106.752 25.8239
330 -18.2528 5.95289 1.4 25.2557 -113.243 33.8652
331 -17.5028 5.95289 1.4 24.5559 -104.76 -57.0788
332 -16.7528 5.95289 1.4 23.8592 -250 0
333 -16.0028 5.95289 1.4 23.1658 -250 0
334 -15.2528 5.95289 1.4 22.4761 -250 0
335 -14.5028 5.95289 1.4 21.7903 -250 0
336 -13.7528 5.95289 1.4 21.1089 -250 0
337 -13.0028 5.95289 1.4 20.4324 -105.196 -56.727
338 -12.2528 5.95289 1.4 19.7611 -75.0497 106.313
339 -11.5028 5.95289 1.4 19.0957 -81.3815 -126.987
340 -10.7528 5.95289 1.4 18.4368 -86.2076 0.0724685
341 -10.0028 5.95289 1.4 17.7851 -69.3239 135.099
342 -9.25282 5.95289 1.4 17.1414 -87.2064 133.879
343 -8.50282 5.95289 1.4 16.5067 -83.1872 -138.563
344 -7.75282 5.95289 1.4 15.8821 -97.4687 -30.0318
345 -7.00282 5.95289 1.4 15.2687 -83.5074 76.1992
346 -6.25282 5.95289 1.4 14.6681 -91.3236 117.302
347 -5.50282 5.95289 1.4 14.0818 -84.6499 93.5156
348 -4.75282 5.95289 1.4 13.5117 -68.15 -38.9087
349 -4.00282 5.95289 1.4 12.96 -68.3656 175.535
350 -3.25282 5.95289 1.4 12.429 -114.886 81.3806
351 -2.50282 5.95289 1.4 11.9216 -94.4255 -177.718
352 -1.75282 5.95289 1.4 11.4409 -76.2296 131.616
353 -1.00282 5.95289 1.4 10.9903 -69.8316 133.516
354 -0.25282 5.95289 1.4 10.5739 -63.8777 -83.2583
355 0.49718 5.95289 1.4 10.1956 -67.5753 106.152
356 1.24718 5.95289 1.4 9.86001 -72.2011 -10.5006
357 1.99718 5.95289 1.4 9.57152 -72.1746 -51.8484
358 2.74718 5.95289 1.4 9.33451 -80.4105 18.9469
359 3.49718 5.95289 1.4 9.15298 -67.1287 -172.37
360 4.24718 5.95289 1.4 9.03029 -58.0793 55.5772
361 4.99718 5.95289 1.4 8.96885 -60.2778 82.6029
362 5.74718 5.95289 1.4 8.96992 -67.1738 12.0996
363 6.49718 5.95289 1.4 9.03347 -63.5469 158.17
364 7.24718 5.95289 1.4 9.1582 -56.6565 137.534
365 7.99718 5.95289 1.4 9.34167 -53.1636 14.4615
366 8.74718 5.95289 1.4 9.58049 -58.9143 123.763
367 9.49718 5.95289 1.4 9.87066 -63.567 -46.52
368 10.2472 5.95289 1.4 10.2078 -66.8584 159.922
369 10.9972 5.95289 1.4 10.5874 -66.5459 109.393
370 11.7472 5.95289 1.4 11.0051 -63.7608 -19.9092
371 12.4972 5.95289 1.4 11.4567 -59.5404 122.993
372 13.2472 5.95289 1.4 11.9384 -58.0034 165.719
373 13.9972 5.95289 1.4 12.4467 -106.653 -18.1553
374 14.7472 5.95289 1.4 12.9784 -96.6389 123.697
375 15.4972 5.95289 1.4 13.5308 -250 0
376 16.2472 5.95289 1.4 14.1015 -250 0
377 16.9972 5.95289 1.4 14.6883 -250 0
378 17.7472 5.95289 1.4 15.2894 -100.074 -85.5959
379 18.4972 5.95289 1.4 15.9031 -82.0984 115.898
380 19.2472 5.95289 1.4 16.5281 -95.0701 -168.622
381 19.9972 5.95289 1.4 17.1631 -113.015 -27.3333
382 20.7472 5.95289 1.4 17.8071 -100.795 163.407
383 21.4972 5.95289 1.4 18.459 -114.871 -82.9857
384 22.2472 5.95289 1.4 19.1182 -110.012 91.1986
385 22.9972 5.95289 1.4 19.7838 -84.398 56.8129
386 23.7472 5.95289 1.4 20.4553 -68.3204 87.0517
387 24.4972 5.95289 1.4 21.132 -69.058 153.454
388 25.2472 5.95289 1.4 21.8136 -115.139 -54.4282
389 25.9972 5.95289 1.4 22.4995 -101.043 -177.225
390 26.7472 5.95289 1.4 23.1893 -99.4723 47.301
391 27.4972 5.95289 1.4 23.8828 -250 0
392 28.2472 5.95289 1.4 24.5796 -250 0
393 28.9972 5.95289 1.4 25.2795 -250 0
394 29.7472 5.95289 1.4 25.9821 -250 0
395 30.4972 5.95289 1.4 26.6874 -250 0
396 -28.0028 6.70289 1.4 34.358 -170.916 179.23
397 -27.2528 6.70289 1.4 33.6302 -169.234 31.7178
398 -26.5028 6.70289 1.4 32.9034 -116.468 115.483
399 -25.7528 6.70289 1.4 32.1777 -118.336 -37.5539
400 -25.0028 6.70289 1.4 31.4531 -106.274 133.824
401 -24.2528 6.70289 1.4 30.7297 -134.389 98.4749
402 -23.5028 6.70289 1.4 30.0077 -138.065 -171.158
403 -22.7528 6.70289 1.4 29.287 -136.825 10.7212
404 -22.0028 6.70289 1.4 28.5679 -144.473 -16.466
405 -21.2528 6.70289 1.4 27.8503 -145.036 172.73
406 -20.5028 6.70289 1.4 27.1346 -113.147 -161.16
407 -19.7528 6.70289 1.4 26.4207 -85.5494 67.665
408 -19.0028 6.70289 1.4 25.7089 -109.212 -143.598
409 -18.2528 6.70289 1.4 24.9994 -101.147 43.5899
410 -17.5028 6.70289 1.4 24.2922 -100.683 92.0129
411 -16.7528 6.70289 1.4 23.5877 -250 0
412 -16.0028 6.70289 1.4 22.8861 -250 0
413 -15.2528 6.70289 1.4 22.1877 -250 0
414 -14.5028 6.70289 1.4 21.4928 -250 0
415 -13.7528 6.70289 1.4 20.8016 -90.8018 -69.1901
416 -13.0028 6.70289 1.4 20.1147 -106.084 148.406
417 -12.2528 6.70289 1.4 19.4325 -79.4336 -116.751
418 -11.5028 6.70289 1.4 18.7554 -77.8836 19.325
419 -10.7528 6.70289 1.4 18.0841 -74.1379 19.9358
420 -10.0028 6.70289 1.4 17.4192 -79.9897 -154.243
421 -9.25282 6.70289 1.4 16.7615 -69.2268 25.1748
422 -8.50282 6.70289 1.4 16.1118 -87.8873 -32.679
423 -7.75282 6.70289 1.4 15.4713 -85.3464 -174.116
424 -7.00282 6.70289 1.4 14.841 -83.2365 17.612
425 -6.25282 6.70289 1.4 14.2223 -87.1958 -35.7657
426 -5.50282 6.70289 1.4 13.6168 -90.7691 139.204
427 -4.75282 6.70289 1.4 13.0264 -86.2959 -57.4934
428 -4.00282 6.70289 1.4 12.4532 -146.888 -107.74
429 -3.25282 6.70289 1.4 11.8996 -70.702 -74.9606
430 -2.50282 6.70289 1.4 11.3686 -250 0
431 -1.75282 6.70289 1.4 10.8634 -77.9782 -6.98911
432 -1.00282 6.70289 1.4 10.3879 -75.3113 104.382
433 -0.25282 6.70289 1.4 9.94619 -65.3836 -50.9145
434 0.49718 6.70289 1.4 9.54311 -68.6784 124.085
435 1.24718 6.70289 1.4 9.18368 -57.6368 -39.4192
436 1.99718 6.70289 1.4 8.87322 -66.4069 -96.5681
437 2.74718 6.70289 1.4 8.61703 -68.5912 150.424
438 3.49718 6.70289 1.4 8.42005 -68.7694 -80.8501
439 4.24718 6.70289 1.4 8.28652 -59.9447 13.1624
440 4.99718 6.70289 1.4 8.21952 -57.7894 -8.28662
441 5.74718 6.70289 1.4 8.22068 -66.0657 154.917
442 6.49718 6.70289 1.4 8.28998 -56.0986 -74.8856
443 7.24718 6.70289 1.4 8.42573 -70.0551 -158.823
444 7.99718 6.70289 1.4 8.62479 -53.4948 -6.51946
445 8.74718 6.70289 1.4 8.88291 -57.749 -102.854
446 9.49718 6.70289 1.4 9.19512 -56.6768 146.969
447 10.2472 6.70289 1.4 9.55611 -66.1215 -76.6074
448 10.9972 6.70289 1.4 9.96059 -67.605 -171.283
449 11.7472 6.70289 1.4 10.4035 -62.7465 -23.2577
450 12.4972 6.70289 1.4 10.8801 -57.9104 27.9563
451 13.2472 6.70289 1.4 11.3862 -58.8407 3.76717
452 13.9972 6.70289 1.4 11.918 -250 0
453 14.7472 6.70289 1.4 12.4723 -250 0
454 15.4972 6.70289 1.4 13.0462 -250 0
455 16.2472 6.70289 1.4 13.6372 -250 0
456 16.9972 6.70289 1.4 14.2431 -250 0
457 17.7472 6.70289 1.4 14.8622 -96.7148 -53.3256
458 18.4972 6.70289 1.4 15.4929 -105.042 -19.4231
459 19.2472 6.70289 1.4 16.1338 -97.0544 155.131
460 19.9972 6.70289 1.4 16.7837 -80.274 4.49335
461 20.7472 6.70289 1.4 17.4417 -97.0853 -13.0994
462 21.4972 6.70289 1.4 18.1068 -109.344 -117.127
463 22.2472 6.70289 1.4 18.7783 -83.7773 -58.1675
464 22.9972 6.70289 1.4 19.4556 -68.226 -26.1681
465 23.7472 6.70289 1.4 20.138 -70.6819 76.9909
466 24.4972 6.70289 1.4 20.825 -72.5634 -174.937
467 25.2472 6.70289 1.4 21.5163 -98.1223 -45.608
468 25.9972 6.70289 1.4 22.2114 -250 0
469 26.7472 6.70289 1.4 22.9099 -250 0
470 27.4972 6.70289 1.4 23.6116 -250 0
471 28.2472 6.70289 1.4 24.3162 -250 0
472 28.9972 6.70289 1.4 25.0234 -250 0
473 29.7472 6.70289 1.4 25.7331 -250 0
474 30.4972 6.70289 1.4 26.4449 -250 0
475 -28.0028 7.45289 1.4 34.1865 -115.932 28.5419
476 -27.2528 7.45289 1.4 33.455 -118.554 -61.5913
477 -26.5028 7.45289 1.4 32.7243 -104.162 1.73854
478 -25.7528 7.45289 1.4 31.9945 -106.025 83.4435
479 -25.0028 7.45289 1.4 31.2657 -121.955 90.8897
480 -24.2528 7.45289 1.4 30.5379 -126.472 160.493
481 -23.5028 7.45289 1.4 29.8111 -110.732 -102.389
482 -22.7528 7.45289 1.4 29.0856 -133.787 13.2243
483 -22.0028 7.45289 1.4 28.3614 -141.336 28.1036
484 -21.2528 7.45289 1.4 27.6385 -136.29 -119.241
485 -20.5028 7.45289 1.4 26.9171 -107.43 -46.1147
486 -19.7528 7.45289 1.4 26.1973 -111.804 -29.2235
487 -19.0028 7.45289 1.4 25.4793 -88.1636 -75.4339
488 -18.2528 7.45289 1.4 24.7631 -98.3481 -96.2681
489 -17.5028 7.45289 1.4 24.0491 -93.3365 -130.254
490 -16.7528 7.45289 1.4 23.3372 -250 0
491 -16.0028 7.45289 1.4 22.6279 -250 0
492 -15.2528 7.45289 1.4 21.9212 -250 0
493 -14.5028 7.45289 1.4 21.2175 -250 0
494 -13.7528 7.45289 1.4 20.5171 -94.3419 60.3871
495 -13.0028 7.45289 1.4 19.8204 -78.0442 -7.14317
496 -12.2528 7.45289 1.4 19.1276 -81.0487 175.235
497 -11.5028 7.45289 1.4 18.4394 -93.0853 -3.62801
498 -10.7528 7.45289 1.4 17.7561 -87.0125 -137.252
499 -10.0028 7.45289 1.4 17.0785 -89.2845 -79.1418
500 -9.25282 7.45289 1.4 16.4071 -81.3333 -102.573
501 -8.50282 7.45289 1.4 15.7428 -67.5773 -96.0043
502 -7.75282 7.45289 1.4 15.0866 -81.4801 -52.7016
503 -7.00282 7.45289 1.4 14.4395 -86.271 -174.451
504 -6.25282 7.45289 1.4 13.8029 -100.375 -28.168
505 -5.50282 7.45289 1.4 13.1781 -103.051 -56.1634
506 -4.75282 7.45289 1.4 12.5671 -86.6315 -41.4424
507 -4.00282 7.45289 1.4 11.9719 -86.0523 148.894
508 -3.25282 7.45289 1.4 11.395 -63.7921 8.20671
509 -2.50282 7.45289 1.4 10.8393 -74.0396 74.4447
510 -1.75282 7.45289 1.4 10.3082 -79.4113 -171.668
511 -1.00282 7.45289 1.4 9.80576 -76.0273 -86.5007
512 -0.25282 7.45289 1.4 9.33659 -88.706 -54.7285
513 0.49718 7.45289 1.4 8.90596 -75.2653 -11.5052
514 1.24718 7.45289 1.4 8.51969 -70.3225 -43.076
515 1.99718 7.45289 1.4 8.18409 -67.259 -162.112
516 2.74718 7.45289 1.4 7.90559 -62.2458 -168.73
517 3.49718 7.45289 1.4 7.69042 -85.2208 -85.6844
518 4.24718 7.45289 1.4 7.54398 -59.3305 -59.2224
519 4.99718 7.45289 1.4 7.47032 -59.8266 -141.882
520 5.74718 7.45289 1.4 7.4716 -73.5571 52.3284
521 6.49718 7.45289 1.4 7.54778 -57.4882 -62.2486
522 7.24718 7.45289 1.4 7.69663 -60.34 -140.947
523 7.99718 7.45289 1.4 7.91405 -54.6465 -94.083
524 8.74718 7.45289 1.4 8.19459 -51.5578 -152.144
525 9.49718 7.45289 1.4 8.53202 -53.6531 7.53654
526 10.2472 7.45289 1.4 8.91989 -63.9834 25.3932
527 10.9972 7.45289 1.4 9.35193 -61.3756 -151.626
528 11.7472 7.45289 1.4 9.82231 -60.7829 -84.7318
529 12.4972 7.45289 1.4 10.3258 -59.0342 -92.5885
530 13.2472 7.45289 1.4 10.8578 -61.9967 139.255
531 13.9972 7.45289 1.4 11.4142 -94.3172 -103.973
532 14.7472 7.45289 1.4 11.9918 -250 0
533 15.4972 7.45289 1.4 12.5876 -250 0
534 16.2472 7.45289 1.4 13.1991 -250 0
535 16.9972 7.45289 1.4 13.8243 -105.302 -121.723
536 17.7472 7.45289 1.4 14.4613 -86.7266 -135.608
537 18.4972 7.45289 1.4 15.1088 -89.5113 165.868
538 19.2472 7.45289 1.4 15.7653 -90.8726 130.039
539 19.9972 7.45289 1.4 16.4298 -89.6869 83.4576
540 20.7472 7.45289 1.4 17.1014 -82.3664 -175.006
541 21.4972 7.45289 1.4 17.7792 -70.4269 97.8167
542 22.2472 7.45289 1.4 18.4627 -66.7 -125.375
543 22.9972 7.45289 1.4 19.1511 -73.1096 -26.9541
544 23.7472 7.45289 1.4 19.844 -72.398 78.3406
545 24.4972 7.45289 1.4 20.5409 -115.157 -171.999
546 25.2472 7.45289 1.4 21.2414 -92.315 164.107
547 25.9972 7.45289 1.4 21.9452 -77.7835 -109.621
548 26.7472 7.45289 1.4 22.6519 -72.9453 -123.084
549 27.4972 7.45289 1.4 23.3614 -250 0
550 28.2472 7.45289 1.4 24.0733 -250 0
551 28.9972 7.45289 1.4 24.7874 -250 0
552 29.7472 7.45289 1.4 25.5037 -250 0
553 30.4972 7.45289 1.4 26.2218 -250 0
554 -28.0028 8.20289 1.4 34.0307 -95.4097 -103.317
555 -27.2528 8.20289 1.4 33.2957 -100.493 -151.453
556 -26.5028 8.20289 1.4 32.5615 -118.481 -26.6969
557 -25.7528 8.20289 1.4 31.8279 -121.152 47.2807
558 -25.0028 8.20289 1.4 31.0952 -250 0
559 -24.2528 8.20289 1.4 30.3633 -151.944 -162.74
560 -23.5028 8.20289 1.4 29.6323 -142.285 -55.5529
561 -22.7528 8.20289 1.4 28.9023 -109.657 46.9624
562 -22.0028 8.20289 1.4 28.1734 -130.362 -157.925
563 -21.2528 8.20289 1.4 27.4455 -250 0
564 -20.5028 8.20289 1.4 26.7189 -123.396 -89.0475
565 -19.7528 8.20289 1.4 25.9937 -129.078 161.63
566 -19.0028 8.20289 1.4 25.2698 -103.981 144.683
567 -18.2528 8.20289 1.4 24.5476 -105.117 156.008
568 -17.5028 8.20289 1.4 23.827 -97.8366 -173.242
569 -16.7528 8.20289 1.4 23.1084 -250 0
570 -16.0028 8.20289 1.4 22.3918 -250 0
571 -15.2528 8.20289 1.4 21.6774 -250 0
572 -14.5028 8.20289 1.4 20.9655 -250 0
573 -13.7528 8.20289 1.4 20.2564 -78.706 83.0415
574 -13.0028 8.20289 1.4 19.5504 -78.234 -145.804
575 -12.2528 8.20289 1.4 18.8477 -83.1711 -85.2844
576 -11.5028 8.20289 1.4 18.1488 -88.9366 -121.838
577 -10.7528 8.20289 1.4 17.4542 -117.968 53.1358
578 -10.0028 8.20289 1.4 16.7644 -96.9606 -71.4192
579 -9.25282 8.20289 1.4 16.0799 -88.2735 42.1458
580 -8.50282 8.20289 1.4 15.4015 -79.1249 61.0655
581 -7.75282 8.20289 1.4 14.7301 -67.5125 172.92
582 -7.00282 8.20289 1.4 14.0666 -83.5851 151.522
583 -6.25282 8.20289 1.4 13.4123 -106.076 20.2992
584 -5.50282 8.20289 1.4 12.7685 -104.359 -37.9372
585 -4.75282 8.20289 1.4 12.1368 -109.628 8.32251
586 -4.00282 8.20289 1.4 11.5194 -150.306 139.38
587 -3.25282 8.20289 1.4 10.9186 -69.3557 -49.6509
588 -2.50282 8.20289 1.4 10.3373 -64.1926 -116.803
589 -1.75282 8.20289 1.4 9.77901 -76.5897 6.81209
590 -1.00282 8.20289 1.4 9.24787 -250 0
591 -0.25282 8.20289 1.4 8.74884 -250 0
592 0.49718 8.20289 1.4 8.28772 -77.9148 119.741
593 1.24718 8.20289 1.4 7.87117 -70.79 -91.8268
594 1.99718 8.20289 1.4 7.50663 -57.113 -158.332
595 2.74718 8.20289 1.4 7.20199 -80.2373 120.665
596 3.49718 8.20289 1.4 6.96511 -250 0
597 4.24718 8.20289 1.4 6.80307 -250 0
598 4.99718 8.20289 1.4 6.7213 -84.4563 -8.13462
599 5.74718 8.20289 1.4 6.72273 -77.8411 -56.181
600 6.49718 8.20289 1.4 6.80729 -67.8532 -88.1712
601 7.24718 8.20289 1.4 6.97196 -61.7438 173.842
602 7.99718 8.20289 1.4 7.21127 -59.2751 -128.635
603 8.74718 8.20289 1.4 7.51808 -52.5133 95.7836
604 9.49718 8.20289 1.4 7.88452 -50.1941 73.2734
605 10.2472 8.20289 1.4 8.30269 -60.5861 66.6453
606 10.9972 8.20289 1.4 8.7652 -59.5273 165.569
607 11.7472 8.20289 1.4 9.26541 -58.0433 167.457
608 12.4972 8.20289 1.4 9.79755 -60.286 45.4281
609 13.2472 8.20289 1.4 10.3567 -64.9715 -168.131
610 13.9972 8.20289 1.4 10.9387 -250 0
611 14.7472 8.20289 1.4 11.5401 -250 0
612 15.4972 8.20289 1.4 12.1581 -250 0
613 16.2472 8.20289 1.4 12.7901 -250 0
614 16.9972 8.20289 1.4 13.4343 -82.2568 46.847
615 17.7472 8.20289 1.4 14.089 -98.6424 37.2397
616 18.4972 8.20289 1.4 14.7528 -97.2282 43.1102
617 19.2472 8.20289 1.4 15.4245 -96.3694 69.7255
618 19.9972 8.20289 1.4 16.103 -87.7259 -60.1584
619 20.7472 8.20289 1.4 16.7877 -68.5526 -26.9369
620 21.4972 8.20289 1.4 17.4777 -65.1361 112.659
621 22.2472 8.20289 1.4 18.1725 -71.9691 -155.577
622 22.9972 8.20289 1.4 18.8715 -69.0978 -55.6585
623 23.7472 8.20289 1.4 19.5743 -87.2726 122.743
624 24.4972 8.20289 1.4 20.2805 -94.9247 -93.7796
625 25.2472 8.20289 1.4 20.9897 -76.3535 59.1605
626 25.9972 8.20289 1.4 21.7016 -72.2473 55.3442
627 26.7472 8.20289 1.4 22.4161 -75.3449 -0.379217
628 27.4972 8.20289 1.4 23.1328 -250 0
629 28.2472 8.20289 1.4 23.8515 -250 0
630 28.9972 8.20289 1.4 24.5721 -250 0
631 29.7472 8.20289 1.4 25.2944 -250 0
632 30.4972 8.20289 1.4 26.0183 -250 0
633 -28.0028 8.95289 1.4 33.8907 -107.583 -126.236
634 -27.2528 8.95289 1.4 33.1527 -107.453 52.8109
635 -26.5028 8.95289 1.4 32.4152 -100.395 169.415
636 -25.7528 8.95289 1.4 31.6783 -103.038 83.9747
637 -25.0028 8.95289 1.4 30.942 -102.046 9.96233
638 -24.2528 8.95289 1.4 30.2064 -136.135 122.576
639 -23.5028 8.95289 1.4 29.4715 -147.766 -109.157
640 -22.7528 8.95289 1.4 28.7374 -131.162 -1.58766
641 -22.0028 8.95289 1.4 28.0042 -250 0
642 -21.2528 8.95289 1.4 27.2718 -110.527 -45.7235
643 -20.5028 8.95289 1.4 26.5405 -114.829 -80.2243
644 -19.7528 8.95289 1.4 25.8102 -104.836 -50.4705
645 -19.0028 8.95289 1.4 25.0811 -89.2135 102.091
646 -18.2528 8.95289 1.4 24.3532 -120.167 152.044
647 -17.5028 8.95289 1.4 23.6267 -89.0392 76.7282
648 -16.7528 8.95289 1.4 22.9018 -250 0
649 -16.0028 8.95289 1.4 22.1785 -250 0
650 -15.2528 8.95289 1.4 21.4571 -250 0
651 -14.5028 8.95289 1.4 20.7376 -250 0
652 -13.7528 8.95289 1.4 20.0204 -78.6744 -10.116
653 -13.0028 8.95289 1.4 19.3058 -86.8952 23.7539
654 -12.2528 8.95289 1.4 18.5939 -83.9859 -67.7155
655 -11.5028 8.95289 1.4 17.8851 -91.603 -88.0282
656 -10.7528 8.95289 1.4 17.1798 -94.4786 45.424
657 -10.0028 8.95289 1.4 16.4784 -82.7968 140.462
658 -9.25282 8.95289 1.4 15.7816 -88.5253 108.432
659 -8.50282 8.95289 1.4 15.0898 -94.6092 -11.6691
660 -7.75282 8.95289 1.4 14.4039 -88.3549 -41.0427
661 -7.00282 8.95289 1.4 13.7246 -79.1036 -1.49178
662 -6.25282 8.95289 1.4 13.0531 -72.6378 144.248
663 -5.50282 8.95289 1.4 12.3907 -87.579 -45.6566
664 -4.75282 8.95289 1.4 11.7387 -111.344 -33.2308
665 -4.00282 8.95289 1.4 11.0992 -151.663 83.0055
666 -3.25282 8.95289 1.4 10.4743 -75.7088 35.3347
667 -2.50282 8.95289 1.4 9.86687 -66.0173 -140.542
668 -1.75282 8.95289 1.4 9.28031 -66.9164 139.345
669 -1.00282 8.95289 1.4 8.71885 -250 0
670 -0.25282 8.95289 1.4 8.18764 -250 0
671 0.49718 8.95289 1.4 7.69295 -66.4103 156.106
672 1.24718 8.95289 1.4 7.24228 -64.3534 -73.6718
673 1.99718 8.95289 1.4 6.84432 -69.8224 -179.926
674 2.74718 8.95289 1.4 6.50875 -65.9434 61.1256
675 3.49718 8.95289 1.4 6.24563 -81.3021 12.4122
676 4.24718 8.95289 1.4 6.06441 -250 0
677 4.99718 8.95289 1.4 5.97253 -86.345 -51.851
678 5.74718 8.95289 1.4 5.97413 -76.2319 -26.8647
679 6.49718 8.95289 1.4 6.06913 -68.0732 -93.8908
680 7.24718 8.95289 1.4 6.25328 -56.3632 164.571
681 7.99718 8.95289 1.4 6.51902 -55.6165 146.441
682 8.74718 8.95289 1.4 6.85687 -56.0938 -103.561
683 9.49718 8.95289 1.4 7.25677 -58.5727 6.50501
684 10.2472 8.95289 1.4 7.70908 -57.5631 41.062
685 10.9972 8.95289 1.4 8.20512 -56.4754 39.0587
686 11.7472 8.95289 1.4 8.73745 -59.7205 -68.5109
687 12.4972 8.95289 1.4 9.29985 -73.1823 127.921
688 13.2472 8.95289 1.4 9.88718 -78.8555 -138.357
689 13.9972 8.95289 1.4 10.4953 -250 0
690 14.7472 8.95289 1.4 11.1207 -250 0
691 15.4972 8.95289 1.4 11.7607 -250 0
692 16.2472 8.95289 1.4 12.413 -250 0
693 16.9972 8.95289 1.4 13.0758 -250 0
694 17.7472 8.95289 1.4 13.7476 -121.897 144.48
695 18.4972 8.95289 1.4 14.4271 -102.905 77.0511
696 19.2472 8.95289 1.4 15.1132 -95.5994 115.041
697 19.9972 8.95289 1.4 15.8052 -70.8056 -129.889
698 20.7472 8.95289 1.4 16.5022 -65.3821 -14.7994
699 21.4972 8.95289 1.4 17.2037 -67.7754 99.6565
700 22.2472 8.95289 1.4 17.9091 -86.4226 54.3028
701 22.9972 8.95289 1.4 18.618 -81.102 138.208
702 23.7472 8.95289 1.4 19.33 -85.2922 -175.915
703 24.4972 8.95289 1.4 20.0448 -80.0863 72.6443
704 25.2472 8.95289 1.4 20.762 -70.9274 -97.4626
705 25.9972 8.95289 1.4 21.4815 -79.8121 -36.2167
706 26.7472 8.95289 1.4 22.203 -79.3025 -7.52235
707 27.4972 8.95289 1.4 22.9264 -250 0
708 28.2472 8.95289 1.4 23.6514 -250 0
709 28.9972 8.95289 1.4 24.3779 -250 0
710 29.7472 8.95289 1.4 25.1058 -250 0
711 30.4972 8.95289 1.4 25.835 -250 0
712 -28.0028 9.70289 1.4 33.7669 -250 0
713 -27.2528 9.70289 1.4 33.026 -250 0
714 -26.5028 9.70289 1.4 32.2857 -107.75 160.569
715 -25.7528 9.70289 1.4 31.5457 -95.0649 -142.067
716 -25.0028 9.70289 1.4 30.8063 -107.308 122.305
717 -24.2528 9.70289 1.4 30.0674 -250 0
718 -23.5028 9.70289 1.4 29.329 -250 0
719 -22.7528 9.70289 1.4 28.5912 -250 0
720 -22.0028 9.70289 1.4 27.8541 -250 0
721 -21.2528 9.70289 1.4 27.1178 -250 0
722 -20.5028 9.70289 1.4 26.3821 -250 0
723 -19.7528 9.70289 1.4 25.6473 -250 0
724 -19.0028 9.70289 1.4 24.9134 -250 0
725 -18.2528 9.70289 1.4 24.1805 -250 0
726 -17.5028 9.70289 1.4 23.4487 -250 0
727 -16.7528 9.70289 1.4 22.7181 -250 0
728 -16.0028 9.70289 1.4 21.9888 -250 0
729 -15.2528 9.70289 1.4 21.2609 -250 0
730 -14.5028 9.70289 1.4 20.5346 -250 0
731 -13.7528 9.70289 1.4 19.8101 -97.1751 97.5136
732 -13.0028 9.70289 1.4 19.0875 -115.954 -74.1632
733 -12.2528 9.70289 1.4 18.3671 -109.986 -53.1327
734 -11.5028 9.70289 1.4 17.6492 -86.2327 37.439
735 -10.7528 9.70289 1.4 16.9341 -93.6326 -108.742
736 -10.0028 9.70289 1.4 16.2222 -82.4901 -81.8459
737 -9.25282 9.70289 1.4 15.5138 -82.488 65.3955
738 -8.50282 9.70289 1.4 14.8095 -89.1163 95.981
739 -7.75282 9.70289 1.4 14.11 -99.0393 83.3938
740 -7.00282 9.70289 1.4 13.4159 -109.703 121.276
741 -6.25282 9.70289 1.4 12.7281 -83.745 112.631
742 -5.50282 9.70289 1.4 12.0478 -93.5173 17.5914
743 -4.75282 9.70289 1.4 11.3762 -71.2289 44.9592
744 -4.00282 9.70289 1.4 10.715 -152.858 26.6563
745 -3.25282 9.70289 1.4 10.0663 -77.4041 -133.995
746 -2.50282 9.70289 1.4 9.43267 -250 0
747 -1.75282 9.70289 1.4 8.81728 -62.1921 94.6139
748 -1.00282 9.70289 1.4 8.22426 -67.0038 29.4434
749 -0.25282 9.70289 1.4 7.65882 -250 0
750 0.49718 9.70289 1.4 7.12753 -71.908 -149.095
751 1.24718 9.70289 1.4 6.63858 -72.5891 47.7195
752 1.99718 9.70289 1.4 6.20201 -68.9178 73.6805
753 2.74718 9.70289 1.4 5.82958 -55.7383 126.557
754 3.49718 9.70289 1.4 5.53427 -72.0087 -110.201
755 4.24718 9.70289 1.4 5.3289 -55.4331 145.1
756 4.99718 9.70289 1.4 5.22411 -88.41 -120.497
757 5.74718 9.70289 1.4 5.22594 -87.4855 -0.359902
758 6.49718 9.70289 1.4 5.33428 -61.0184 -42.1279
759 7.24718 9.70289 1.4 5.54289 -55.8318 103.225
760 7.99718 9.70289 1.4 5.84104 -55.3406 -5.97128
761 8.74718 9.70289 1.4 6.21586 -77.4983 -34.3574
762 9.49718 9.70289 1.4 6.6544 -60.7199 -119.883
763 10.2472 9.70289 1.4 7.14493 -56.2727 -65.5619
764 10.9972 9.70289 1.4 7.67751 -56.8748 -164.687
765 11.7472 9.70289 1.4 8.24399 -83.292 -157.273
766 12.4972 9.70289 1.4 8.83784 -81.0257 14.0946
767 13.2472 9.70289 1.4 9.45392 -72.9433 -26.6511
768 13.9972 9.70289 1.4 10.0881 -250 0
769 14.7472 9.70289 1.4 10.7373 -250 0
770 15.4972 9.70289 1.4 11.3989 -250 0
771 16.2472 9.70289 1.4 12.0707 -250 0
772 16.9972 9.70289 1.4 12.7514 -250 0
773 17.7472 9.70289 1.4 13.4394 -115.954 -178.356
774 18.4972 9.70289 1.4 14.1337 -103.581 6.32582
775 19.2472 9.70289 1.4 14.8334 -67.1984 99.5088
776 19.9972 9.70289 1.4 15.5378 -64.665 -134.829
777 20.7472 9.70289 1.4 16.2463 -66.4917 -39.2107
778 21.4972 9.70289 1.4 16.9584 -69.614 40.9141
779 22.2472 9.70289 1.4 17.6736 -85.492 -125.925
780 22.9972 9.70289 1.4 18.3916 -85.7635 -106.009
781 23.7472 9.70289 1.4 19.112 -87.0039 -125.457
782 24.4972 9.70289 1.4 19.8346 -78.4363 -164.853
783 25.2472 9.70289 1.4 20.5592 -86.208 107.776
784 25.9972 9.70289 1.4 21.2856 -92.3974 103.453
785 26.7472 9.70289 1.4 22.0135 -250 0
786 27.4972 9.70289 1.4 22.7429 -250 0
787 28.2472 9.70289 1.4 23.4736 -250 0
788 28.9972 9.70289 1.4 24.2054 -250 0
789 29.7472 9.70289 1.4 24.9384 -250 0
790 30.4972 9.70289 1.4 25.6723 -250 0
791 -28.0028 10.4529 1.4 33.6593 -250 0
792 -27.2528 10.4529 1.4 32.916 -250 0
793 -26.5028 10.4529 1.4 32.1731 -250 0
794 -25.7528 10.4529 1.4 31.4305 -250 0
795 -25.0028 10.4529 1.4 30.6883 -92.1375 87.0089
796 -24.2528 10.4529 1.4 29.9465 -250 0
797 -23.5028 10.4529 1.4 29.2051 -250 0
798 -22.7528 10.4529 1.4 28.4641 -250 0
799 -22.0028 10.4529 1.4 27.7236 -250 0
800 -21.2528 10.4529 1.4 26.9837 -250 0
801 -20.5028 10.4529 1.4 26.2443 -250 0
802 -19.7528 10.4529 1.4 25.5055 -250 0
803 -19.0028 10.4529 1.4 24.7674 -250 0
804 -18.2528 10.4529 1.4 24.0301 -129.638 66.2994
805 -17.5028 10.4529 1.4 23.2935 -250 0
806 -16.7528 10.4529 1.4 22.5579 -250 0
807 -16.0028 10.4529 1.4 21.8232 -250 0
808 -15.2528 10.4529 1.4 21.0896 -250 0
809 -14.5028 10.4529 1.4 20.3572 -250 0
810 -13.7528 10.4529 1.4 19.6261 -250 0
811 -13.0028 10.4529 1.4 18.8965 -108.196 60.3211
812 -12.2528 10.4529 1.4 18.1686 -97.6738 -113.735
813 -11.5028 10.4529 1.4 17.4425 -91.7922 37.2402
814 -10.7528 10.4529 1.4 16.7186 -86.4189 67.0759
815 -10.0028 10.4529 1.4 15.997 -83.7252 23.9521
816 -9.25282 10.4529 1.4 15.2782 -85.2358 -19.8018
817 -8.50282 10.4529 1.4 14.5625 -95.4133 63.7405
818 -7.75282 10.4529 1.4 13.8505 -115.221 -27.9196
819 -7.00282 10.4529 1.4 13.1427 -106.848 -144.855
820 -6.25282 10.4529 1.4 12.4399 -86.6587 -62.9087
821 -5.50282 10.4529 1.4 11.7428 -86.0968 -88.9745
822 -4.75282 10.4529 1.4 11.0527 -94.461 141.303
823 -4.00282 10.4529 1.4 10.371 -153.923 -29.6744
824 -3.25282 10.4529 1.4 9.6993 -120.001 63.2337
825 -2.50282 10.4529 1.4 9.03994 -250 0
826 -1.75282 10.4529 1.4 8.39581 -87.8217 -178.78
827 -1.00282 10.4529 1.4 7.77069 -68.0078 -140.077
828 -0.25282 10.4529 1.4 7.16957 -62.6405 -89.6877
829 0.49718 10.4529 1.4 6.59901 -86.7245 5.62631
830 1.24718 10.4529 1.4 6.06762 -250 0
831 1.99718 10.4529 1.4 5.5866 -68.0538 80.4956
832 2.74718 10.4529 1.4 5.17003 -63.4087 -0.503608
833 3.49718 10.4529 1.4 4.83459 -75.7566 143.288
834 4.24718 10.4529 1.4 4.59809 -54.4048 149.363
835 4.99718 10.4529 1.4 4.47622 -76.9515 94.178
836 5.74718 10.4529 1.4 4.47835 -62.6528 46.7424
837 6.49718 10.4529 1.4 4.60432 -52.1112 -7.42888
838 7.24718 10.4529 1.4 4.84447 -55.7699 20.0874
839 7.99718 10.4529 1.4 5.18295 -51.6507 154.463
840 8.74718 10.4529 1.4 5.60197 -68.7664 12.2413
841 9.49718 10.4529 1.4 6.08491 -74.1964 -37.2223
842 10.2472 10.4529 1.4 6.6178 -58.8125 87.6879
843 10.9972 10.4529 1.4 7.18953 -84.9328 -112.8
844 11.7472 10.4529 1.4 7.79157 -90.8918 128.033
845 12.4972 10.4529 1.4 8.4174 -85.2191 8.18191
846 13.2472 10.4529 1.4 9.0621 -83.7975 -166.294
847 13.9972 10.4529 1.4 9.72192 -250 0
848 14.7472 10.4529 1.4 10.394 -250 0
849 15.4972 10.4529 1.4 11.0761 -250 0
850 16.2472 10.4529 1.4 11.7664 -250 0
851 16.9972 10.4529 1.4 12.4636 -250 0
852 17.7472 10.4529 1.4 13.1667 -105.239 172.279
853 18.4972 10.4529 1.4 13.8746 -67.9853 -23.6953
854 19.2472 10.4529 1.4 14.5868 -64.9395 114.938
855 19.9972 10.4529 1.4 15.3026 -68.262 -172.746
856 20.7472 10.4529 1.4 16.0215 -70.774 -78.3402
857 21.4972 10.4529 1.4 16.7431 -84.5606 -62.9105
858 22.2472 10.4529 1.4 17.4671 -81.1107 -54.3513
859 22.9972 10.4529 1.4 18.1933 -81.0604 -102.115
860 23.7472 10.4529 1.4 18.9213 -80.4464 -120.028
861 24.4972 10.4529 1.4 19.6509 -79.9135 -142.187
862 25.2472 10.4529 1.4 20.382 -250 0
863 25.9972 10.4529 1.4 21.1145 -250 0
864 26.7472 10.4529 1.4 21.8481 -250 0
865 27.4972 10.4529 1.4 22.5828 -250 0
866 28.2472 10.4529 1.4 23.3185 -250 0
867 28.9972 10.4529 1.4 24.0551 -250 0
868 29.7472 10.4529 1.4 24.7925 -250 0
869 30.4972 10.4529 1.4 25.5306 -250 0
870 -28.0028 11.2029 1.4 33.5681 -250 0
871 -27.2528 11.2029 1.4 32.8228 -250 0
872 -26.5028 11.2029 1.4 32.0777 -250 0
873 -25.7528 11.2029 1.4 31.3329 -250 0
874 -25.0028 11.2029 1.4 30.5883 -250 0
875 -24.2528 11.2029 1.4 29.844 -108.236 -160.635
876 -23.5028 11.2029 1.4 29.0999 -108.418 -140.097
877 -22.7528 11.2029 1.4 28.3562 -78.3712 170.484
878 -22.0028 11.2029 1.4 27.6128 -79.8767 74.0534
879 -21.2528 11.2029 1.4 26.8698 -79.0115 -27.8238
880 -20.5028 11.2029 1.4 26.1272 -89.8587 86.3138
881 -19.7528 11.2029 1.4 25.3851 -92.7813 -126.471
882 -19.0028 11.2029 1.4 24.6434 -250 0
883 -18.2528 11.2029 1.4 23.9022 -250 0
884 -17.5028 11.2029 1.4 23.1616 -85.9915 141.34
885 -16.7528 11.2029 1.4 22.4216 -75.4922 -78.5978
886 -16.0028 11.2029 1.4 21.6823 -91.6284 -91.6742
887 -15.2528 11.2029 1.4 20.9438 -94.328 153.82
888 -14.5028 11.2029 1.4 20.2061 -90.3855 -94.0949
889 -13.7528 11.2029 1.4 19.4693 -92.1627 122.678
890 -13.0028 11.2029 1.4 18.7336 -91.6425 -107.798
891 -12.2528 11.2029 1.4 17.9991 -90.7564 170.145
892 -11.5028 11.2029 1.4 17.2659 -89.7852 146.566
893 -10.7528 11.2029 1.4 16.5342 -86.6608 -34.0657
894 -10.0028 11.2029 1.4 15.8043 -76.618 64.0223
895 -9.25282 11.2029 1.4 15.0763 -250 0
896 -8.50282 11.2029 1.4 14.3505 -96.3997 -105.337
897 -7.75282 11.2029 1.4 13.6274 -250 0
898 -7.00282 11.2029 1.4 12.9074 -70.7797 112.841
899 -6.25282 11.2029 1.4 12.191 -73.3275 88.2626
900 -5.50282 11.2029 1.4 11.4789 -72.2098 32.9742
901 -4.75282 11.2029 1.4 10.7719 -66.9445 -21.6562
902 -4.00282 11.2029 1.4 10.0711 -69.049 -136.314
903 -3.25282 11.2029 1.4 9.37798 -67.7987 113.519
904 -2.50282 11.2029 1.4 8.69429 -65.1102 -35.9005
905 -1.75282 11.2029 1.4 8.02245 -60.7173 152.575
906 -1.00282 11.2029 1.4 7.36572 -59.5025 -63.178
907 -0.25282 11.2029 1.4 6.72852 -61.6184 -40.9262
908 0.49718 11.2029 1.4 6.11695 -62.066 79.4426
909 1.24718 11.2029 1.4 5.53951 -56.647 -74.173
910 1.99718 11.2029 1.4 5.00802 -53.9652 67.7029
911 2.74718 11.2029 1.4 4.53866 -52.9984 12.0474
912 3.49718 11.2029 1.4 4.15253 -80.859 174.196
913 4.24718 11.2029 1.4 3.87461 -118.883 -125.401
914 4.99718 11.2029 1.4 3.72917 -92.6956 -8.4016
915 5.74718 11.2029 1.4 3.73173 -81.4525 153.889
916 6.49718 11.2029 1.4 3.882 -54.757 25.3069
917 7.24718 11.2029 1.4 4.16402 -52.6655 -118.077
918 7.99718 11.2029 1.4 4.55337 -46.1611 -137.288
919 8.74718 11.2029 1.4 5.02516 -49.3997 -45.9751
920 9.49718 11.2029 1.4 5.55845 -49.8811 -135.884
921 10.2472 11.2029 1.4 6.13722 -61.7615 15.7859
922 10.9972 11.2029 1.4 6.74978 -61.8349 -100.895
923 11.7472 11.2029 1.4 7.38774 -58.9977 -159.811
924 12.4972 11.2029 1.4 8.04505 -82.012 -166.845
925 13.2472 11.2029 1.4 8.71733 -72.9177 -86.9699
926 13.9972 11.2029 1.4 9.40138 -70.2563 117.695
927 14.7472 11.2029 1.4 10.0948 -97.2318 -35.5406
928 15.4972 11.2029 1.4 10.7958 -70.317 -142.077
929 16.2472 11.2029 1.4 11.503 -73.4683 -45.8941
930 16.9972 11.2029 1.4 12.2153 -69.986 93.3245
931 17.7472 11.2029 1.4 12.9318 -70.3523 -127.673
932 18.4972 11.2029 1.4 13.6519 -66.9511 5.77199
933 19.2472 11.2029 1.4 14.3751 -66.3278 68.1635
934 19.9972 11.2029 1.4 15.101 -70.9499 87.1822
935 20.7472 11.2029 1.4 15.829 -79.0454 41.0045
936 21.4972 11.2029 1.4 16.559 -83.1024 63.7442
937 22.2472 11.2029 1.4 17.2908 -82.9997 -88.1571
938 22.9972 11.2029 1.4 18.024 -81.5135 -119.537
939 23.7472 11.2029 1.4 18.7586 -78.8532 177.873
940 24.4972 11.2029 1.4 19.4943 -80.0274 135.56
941 25.2472 11.2029 1.4 20.2311 -250 0
942 25.9972 11.2029 1.4 20.9688 -250 0
943 26.7472 11.2029 1.4 21.7074 -250 0
944 27.4972 11.2029 1.4 22.4467 -250 0
945 28.2472 11.2029 1.4 23.1867 -250 0
946 28.9972 11.2029 1.4 23.9274 -250 0
947 29.7472 11.2029 1.4 24.6685 -250 0
948 30.4972 11.2029 1.4 25.4103 -250 0
949 -28.0028 11.9529 1.4 33.4934 -250 0
950 -27.2528 11.9529 1.4 32.7465 -250 0
951 -26.5028 11.9529 1.4 31.9996 -93.5596 72.7011
952 -25.7528 11.9529 1.4 31.2529 -82.1376 -149.54
953 -25.0028 11.9529 1.4 30.5064 -84.2306 120.603
954 -24.2528 11.9529 1.4 29.76 -79.582 -39.1747
955 -23.5028 11.9529 1.4 29.0138 -106.169 -172.013
956 -22.7528 11.9529 1.4 28.2678 -106.353 -141.803
957 -22.0028 11.9529 1.4 27.5221 -91.4091 -4.1519
958 -21.2528 11.9529 1.4 26.7765 -87.8857 60.5809
959 -20.5028 11.9529 1.4 26.0313 -77.5379 -13.1734
960 -19.7528 11.9529 1.4 25.2863 -82.5787 -129.167
961 -19.0028 11.9529 1.4 24.5416 -75.2177 139.212
962 -18.2528 11.9529 1.4 23.7973 -85.2944 130.477
963 -17.5028 11.9529 1.4 23.0533 -92.3415 114.355
964 -16.7528 11.9529 1.4 22.3097 -93.1267 -7.23214
965 -16.0028 11.9529 1.4 21.5666 -88.7852 -28.4759
966 -15.2528 11.9529 1.4 20.8239 -73.8391 -168.663
967 -14.5028 11.9529 1.4 20.0818 -76.0052 -13.7077
968 -13.7528 11.9529 1.4 19.3404 -85.0797 -169.689
969 -13.0028 11.9529 1.4 18.5996 -94.7635 177.076
970 -12.2528 11.9529 1.4 17.8595 -88.2187 16.8329
971 -11.5028 11.9529 1.4 17.1204 -85.6422 -154.3
972 -10.7528 11.9529 1.4 16.3822 -87.3014 -17.1064
973 -10.0028 11.9529 1.4 15.6451 -81.2888 -171.39
974 -9.25282 11.9529 1.4 14.9094 -81.2169 -160.495
975 -8.50282 11.9529 1.4 14.1751 -250 0
976 -7.75282 11.9529 1.4 13.4425 -93.706 -141.949
977 -7.00282 11.9529 1.4 12.712 -80.5899 -26.9211
978 -6.25282 11.9529 1.4 11.984 -77.823 -44.2261
979 -5.50282 11.9529 1.4 11.2587 -73.8929 -96.1487
980 -4.75282 11.9529 1.4 10.537 -69.6848 -70.411
981 -4.00282 11.9529 1.4 9.8195 -68.6079 -108.696
982 -3.25282 11.9529 1.4 9.10723 -68.5232 178.935
983 -2.50282 11.9529 1.4 8.40154 -69.9221 107.368
984 -1.75282 11.9529 1.4 7.70422 -56.6657 24.5602
985 -1.00282 11.9529 1.4 7.01777 -61.4153 -24.4202
986 -0.25282 11.9529 1.4 6.34572 -64.8543 27.3336
987 0.49718 11.9529 1.4 5.69318 -56.9507 -164.973
988 1.24718 11.9529 1.4 5.06768 -55.4494 -94.3423
989 1.99718 11.9529 1.4 4.48057 -54.3849 179.924
990 2.74718 11.9529 1.4 3.949 -50.85 -68.3639
991 3.49718 11.9529 1.4 3.49839 -50.1529 -158.964
992 4.24718 11.9529 1.4 3.16351 -93.1165 -55.5001
993 4.99718 11.9529 1.4 2.98361 -101.754 92.1842
994 5.74718 11.9529 1.4 2.98681 -47.3071 138.323
995 6.49718 11.9529 1.4 3.17256 -51.1333 -73.8299
996 7.24718 11.9529 1.4 3.51201 -49.5846 57.1899
997 7.99718 11.9529 1.4 3.9659 -48.2756 -172.742
998 8.74718 11.9529 1.4 4.49972 -52.3132 90.6373
999 9.49718 11.9529 1.4 5.08838 -58.5631 178.727
1000 10.2472 11.9529 1.4 5.71495 -65.1864 61.8675
1001 10.9972 11.9529 1.4 6.36826 -69.6657 -63.9083
1002 11.7472 11.9529 1.4 7.04087 -63.6195 -111.292
1003 12.4972 11.9529 1.4 7.72774 -63.0961 -33.2405
1004 13.2472 11.9529 1.4 8.42538 -74.4288 -89.4824
1005 13.9972 11.9529 1.4 9.13133 -72.04 148.941
1006 14.7472 11.9529 1.4 9.8438 -69.3754 -162.426
1007 15.4972 11.9529 1.4 10.5615 -65.1676 -154.875
1008 16.2472 11.9529 1.4 11.2833 -80.3537 -162.499
1009 16.9972 11.9529 1.4 12.0086 -69.5577 143.805
1010 17.7472 11.9529 1.4 12.7368 -67.1245 -118.852
1011 18.4972 11.9529 1.4 13.4674 -68.6005 -60.9436
1012 19.2472 11.9529 1.4 14.2 -70.5975 -111.116
1013 19.9972 11.9529 1.4 14.9343 -75.0631 -123.425
1014 20.7472 11.9529 1.4 15.6701 -75.9475 -171.468
1015 21.4972 11.9529 1.4 16.4072 -74.0369 173.851
1016 22.2472 11.9529 1.4 17.1454 -77.8202 142.057
1017 22.9972 11.9529 1.4 17.8846 -75.2752 84.3955
1018 23.7472 11.9529 1.4 18.6247 -76.8664 -82.068
1019 24.4972 11.9529 1.4 19.3655 -81.1212 10.9275
1020 25.2472 11.9529 1.4 20.107 -80.1374 -30.286
1021 25.9972 11.9529 1.4 20.8491 -82.3916 -76.7091
1022 26.7472 11.9529 1.4 21.5918 -82.3599 -122.501
1023 27.4972 11.9529 1.4 22.335 -81.0329 176.06
1024 28.2472 11.9529 1.4 23.0785 -82.235 136.41
1025 28.9972 11.9529 1.4 23.8225 -250 0
1026 29.7472 11.9529 1.4 24.5669 -250 0
1027 30.4972 11.9529 1.4 25.3116 -250 0
1028 -28.0028 12.7029 1.4 33.4355 -92.6648 -17.8048
1029 -27.2528 12.7029 1.4 32.6872 -85.5484 -57.3276
1030 -26.5028 12.7029 1.4 31.9389 -88.9706 61.25
1031 -25.7528 12.7029 1.4 31.1908 -96.6171 85.6968
1032 -25.0028 12.7029 1.4 30.4427 -91.2958 -114.13
1033 -24.2528 12.7029 1.4 29.6947 -95.6867 148.218
1034 -23.5028 12.7029 1.4 28.9469 -74.4447 -110.906
1035 -22.7528 12.7029 1.4 28.1991 -75.6811 -141.693
1036 -22.0028 12.7029 1.4 27.4515 -86.4615 -57.6794
1037 -21.2528 12.7029 1.4 26.704 -85.0323 -52.2149
1038 -20.5028 12.7029 1.4 25.9566 -83.6851 -24.1101
1039 -19.7528 12.7029 1.4 25.2095 -86.2408 7.60963
1040 -19.0028 12.7029 1.4 24.4624 -92.9729 17.4652
1041 -18.2528 12.7029 1.4 23.7156 -77.3475 123.701
1042 -17.5028 12.7029 1.4 22.969 -77.4192 161.164
1043 -16.7528 12.7029 1.4 22.2226 -92.103 -81.4733
1044 -16.0028 12.7029 1.4 21.4764 -93.5966 -44.5794
1045 -15.2528 12.7029 1.4 20.7306 -83.6727 -43.9253
1046 -14.5028 12.7029 1.4 19.985 -91.6231 86.0031
1047 -13.7528 12.7029 1.4 19.2398 -71.2681 97.6179
1048 -13.0028 12.7029 1.4 18.495 -92.9988 159.82
1049 -12.2528 12.7029 1.4 17.7506 -73.9695 -3.62998
1050 -11.5028 12.7029 1.4 17.0067 -74.2242 -67.749
1051 -10.7528 12.7029 1.4 16.2633 -80.0946 -59.88
1052 -10.0028 12.7029 1.4 15.5206 -78.8136 -28.192
1053 -9.25282 12.7029 1.4 14.7787 -81.9169 -75.1071
1054 -8.50282 12.7029 1.4 14.0376 -78.9814 77.6813
1055 -7.75282 12.7029 1.4 13.2975 -73.3181 4.37442
1056 -7.00282 12.7029 1.4 12.5585 -85.6754 -173.955
1057 -6.25282 12.7029 1.4 11.821 -84.8382 -140.661
1058 -5.50282 12.7029 1.4 11.0851 -83.9597 -109.81
1059 -4.75282 12.7029 1.4 10.3513 -74.9482 147.42
1060 -4.00282 12.7029 1.4 9.61992 -73.6043 22.2408
1061 -3.25282 12.7029 1.4 8.89168 -59.3572 137.74
1062 -2.50282 12.7029 1.4 8.16738 -62.3919 153.413
1063 -1.75282 12.7029 1.4 7.44816 -60.239 124.479
1064 -1.00282 12.7029 1.4 6.73567 -67.4241 9.16921
1065 -0.25282 12.7029 1.4 6.03228 -65.2917 -72.1013
1066 0.49718 12.7029 1.4 5.34158 -62.7805 168.162
1067 1.24718 12.7029 1.4 4.66922 -55.4539 -26.3013
1068 1.99718 12.7029 1.4 4.02439 -53.1688 74.0698
1069 2.74718 12.7029 1.4 3.42269 -49.8163 55.2315
1070 3.49718 12.7029 1.4 2.89118 -48.8693 -162.475
1071 4.24718 12.7029 1.4 2.47548 -90.2324 -70.5858
1072 4.99718 12.7029 1.4 2.24101 -90.9474 -160.536
1073 5.74718 12.7029 1.4 2.24527 -45.7672 169.926
1074 6.49718 12.7029 1.4 2.48703 -42.2624 -173.152
1075 7.24718 12.7029 1.4 2.90765 -44.7228 58.9924
1076 7.99718 12.7029 1.4 3.44217 -51.5579 -33.7978
1077 8.74718 12.7029 1.4 4.0457 -52.9517 1.95822
1078 9.49718 12.7029 1.4 4.69167 -59.5496 -91.194
1079 10.2472 12.7029 1.4 5.36478 -59.4243 105.938
1080 10.9972 12.7029 1.4 6.05599 -63.2518 129.227
1081 11.7472 12.7029 1.4 6.75974 -57.4077 -59.3335
1082 12.4972 12.7029 1.4 7.4725 -61.2334 65.1703
1083 13.2472 12.7029 1.4 8.19191 -63.3507 108.62
1084 13.9972 12.7029 1.4 8.91636 -66.4151 82.0012
1085 14.7472 12.7029 1.4 9.64471 -82.6817 59.8743
1086 15.4972 12.7029 1.4 10.3762 -77.9345 52.8052
1087 16.2472 12.7029 1.4 11.1101 -74.9601 40.5179
1088 16.9972 12.7029 1.4 11.846 -77.7389 52.5475
1089 17.7472 12.7029 1.4 12.5836 -69.27 -152.383
1090 18.4972 12.7029 1.4 13.3226 -75.271 -168.461
1091 19.2472 12.7029 1.4 14.0627 -79.2722 -99.6467
1092 19.9972 12.7029 1.4 14.8039 -99.1781 174.437
1093 20.7472 12.7029 1.4 15.5458 -86.7017 100.375
1094 21.4972 12.7029 1.4 16.2886 -79.4911 -10.761
1095 22.2472 12.7029 1.4 17.0319 -98.3173 142.314
1096 22.9972 12.7029 1.4 17.7758 -74.4045 -53.4222
1097 23.7472 12.7029 1.4 18.5203 -79.2607 -28.05
1098 24.4972 12.7029 1.4 19.2651 -84.3121 -45.4721
1099 25.2472 12.7029 1.4 20.0103 -83.3363 143.683
1100 25.9972 12.7029 1.4 20.7559 -81.3569 -2.27418
1101 26.7472 12.7029 1.4 21.5018 -78.799 -56.6362
1102 27.4972 12.7029 1.4 22.2479 -74.4067 -123.817
1103 28.2472 12.7029 1.4 22.9943 -75.3679 -136.377
1104 28.9972 12.7029 1.4 23.741 -250 0
1105 29.7472 12.7029 1.4 24.4878 -250 0
1106 30.4972 12.7029 1.4 25.2348 -250 0
1107 -28.0028 13.4529 1.4 33.3943 -89.7491 133.982
1108 -27.2528 13.4529 1.4 32.645 -94.7524 165.021
1109 -26.5028 13.4529 1.4 31.8958 -99.9888 121.783
1110 -25.7528 13.4529 1.4 31.1466 -101.104 132.738
1111 -25.0028 13.4529 1.4 30.3974 -103.098 163.018
1112 -24.2528 13.4529 1.4 29.6483 -104.15 7.93243
1113 -23.5028 13.4529 1.4 28.8992 -86.8971 2.40521
1114 -22.7528 13.4529 1.4 28.1502 -88.8699 76.6479
1115 -22.0028 13.4529 1.4 27.4013 -77.2425 147.287
1116 -21.2528 13.4529 1.4 26.6524 -86.8037 79.0366
1117 -20.5028 13.4529 1.4 25.9035 -89.2698 13.8944
1118 -19.7528 13.4529 1.4 25.1548 -83.908 -84.9341
1119 -19.0028 13.4529 1.4 24.4061 -73.64 -71.0103
1120 -18.2528 13.4529 1.4 23.6575 -86.1553 -23.2049
1121 -17.5028 13.4529 1.4 22.9089 -98.2752 -22.2518
1122 -16.7528 13.4529 1.4 22.1605 -78.5056 26.7241
1123 -16.0028 13.4529 1.4 21.4122 -76.8601 -58.9225
1124 -15.2528 13.4529 1.4 20.664 -72.8208 -165.405
1125 -14.5028 13.4529 1.4 19.916 -79.3049 -146.261
1126 -13.7528 13.4529 1.4 19.1681 -74.5925 167.765
1127 -13.0028 13.4529 1.4 18.4203 -80.6029 131.119
1128 -12.2528 13.4529 1.4 17.6728 -70.5076 7.87301
1129 -11.5028 13.4529 1.4 16.9255 -80.4145 7.57999
1130 -10.7528 13.4529 1.4 16.1784 -85.39 -26.4042
1131 -10.0028 13.4529 1.4 15.4316 -77.4195 121.046
1132 -9.25282 13.4529 1.4 14.6852 -74.4189 0.389606
1133 -8.50282 13.4529 1.4 13.9391 -64.9334 -171.27
1134 -7.75282 13.4529 1.4 13.1935 -72.5512 -49.6216
1135 -7.00282 13.4529 1.4 12.4484 -250 0
1136 -6.25282 13.4529 1.4 11.7039 -250 0
1137 -5.50282 13.4529 1.4 10.9601 -86.5321 131.289
1138 -4.75282 13.4529 1.4 10.2173 -69.7997 -124.718
1139 -4.00282 13.4529 1.4 9.47565 -62.5891 -39.4603
1140 -3.25282 13.4529 1.4 8.73539 -64.1147 -54.7646
1141 -2.50282 13.4529 1.4 7.99695 -65.1165 -80.5993
1142 -1.75282 13.4529 1.4 7.26088 -82.6885 89.1943
1143 -1.00282 13.4529 1.4 6.52797 -70.9483 -100.153
1144 -0.25282 13.4529 1.4 5.79944 -71.6014 -108.921
1145 0.49718 13.4529 1.4 5.07717 -67.4546 -145.04
1146 1.24718 13.4529 1.4 4.36426 -62.686 133.911
1147 1.99718 13.4529 1.4 3.66618 -58.4306 -69.0127
1148 2.74718 13.4529 1.4 2.99332 -50.0012 -107.651
1149 3.49718 13.4529 1.4 2.3673 -47.7496 -55.4598
1150 4.24718 13.4529 1.4 1.83663 -44.7395 73.1755
1151 4.99718 13.4529 1.4 1.50576 -89.526 108.314
1152 5.74718 13.4529 1.4 1.51209 -42.1637 171.793
1153 6.49718 13.4529 1.4 1.85217 -42.4066 -56.7269
1154 7.24718 13.4529 1.4 2.38739 -49.0822 -83.714
1155 7.99718 13.4529 1.4 3.01558 -60.4642 169.033
1156 8.74718 13.4529 1.4 3.68956 -65.401 68.7405
1157 9.49718 13.4529 1.4 4.38828 -58.8741 121.8
1158 10.2472 13.4529 1.4 5.10158 -75.3756 162.359
1159 10.9972 13.4529 1.4 5.8241 -68.1819 -108.502
1160 11.7472 13.4529 1.4 6.55281 -62.4331 -139.852
1161 12.4972 13.4529 1.4 7.28584 -61.4935 76.6371
1162 13.2472 13.4529 1.4 8.022 -61.7592 -176.647
1163 13.9972 13.4529 1.4 8.76051 -66.4359 -123.823
1164 14.7472 13.4529 1.4 9.50083 -66.7106 -114.426
1165 15.4972 13.4529 1.4 10.2426 -79.3909 -100.593
1166 16.2472 13.4529 1.4 10.9854 -74.1214 -71.2445
1167 16.9972 13.4529 1.4 11.7292 -67.0049 58.0868
1168 17.7472 13.4529 1.4 12.4737 -70.4527 -137.751
1169 18.4972 13.4529 1.4 13.2188 -69.8191 14.2617
1170 19.2472 13.4529 1.4 13.9644 -77.0377 -42.4827
1171 19.9972 13.4529 1.4 14.7105 -76.5311 -96.8386
1172 20.7472 13.4529 1.4 15.457 -78.98 128.281
1173 21.4972 13.4529 1.4 16.2038 -70.8638 -178.905
1174 22.2472 13.4529 1.4 16.9509 -75.2435 113.316
1175 22.9972 13.4529 1.4 17.6982 -74.0459 66.3019
1176 23.7472 13.4529 1.4 18.4457 -78.3068 20.5971
1177 24.4972 13.4529 1.4 19.1935 -73.2361 -46.4348
1178 25.2472 13.4529 1.4 19.9414 -85.7132 -145.674
1179 25.9972 13.4529 1.4 20.6894 -72.13 135.596
1180 26.7472 13.4529 1.4 21.4376 -89.4597 157.083
1181 27.4972 13.4529 1.4 22.1859 -88.4868 100.953
1182 28.2472 13.4529 1.4 22.9344 -92.3299 5.60505
1183 28.9972 13.4529 1.4 23.6829 -250 0
1184 29.7472 13.4529 1.4 24.4315 -250 0
1185 30.4972 13.4529 1.4 25.1802 -250 0
1186 -28.0028 14.2029 1.4 33.3698 -250 0
1187 -27.2528 14.2029 1.4 32.62 -250 0
1188 -26.5028 14.2029 1.4 31.8702 -109.544 135.62
1189 -25.7528 14.2029 1.4 31.1204 -109.467 17.7433
1190 -25.0028 14.2029 1.4 30.3706 -102.564 -62.2452
1191 -24.2528 14.2029 1.4 29.6208 -87.8738 -108.351
1192 -23.5028 14.2029 1.4 28.871 -87.0732 -83.2789
1193 -22.7528 14.2029 1.4 28.1213 -93.7775 -19.7315
1194 -22.0028 14.2029 1.4 27.3715 -86.7414 60.1313
1195 -21.2528 14.2029 1.4 26.6218 -85.025 77.05
1196 -20.5028 14.2029 1.4 25.872 -71.2302 53.0181
1197 -19.7528 14.2029 1.4 25.1223 -96.2282 -108.253
1198 -19.0028 14.2029 1.4 24.3726 -80.73 -133.664
1199 -18.2528 14.2029 1.4 23.623 -87.2533 -34.0173
1200 -17.5028 14.2029 1.4 22.8733 -86.5761 50.9268
1201 -16.7528 14.2029 1.4 22.1237 -79.0026 56.7316
1202 -16.0028 14.2029 1.4 21.3741 -78.0412 25.5949
1203 -15.2528 14.2029 1.4 20.6245 -84.0181 -159.333
1204 -14.5028 14.2029 1.4 19.875 -75.5174 -151.09
1205 -13.7528 14.2029 1.4 19.1255 -82.6442 61.278
1206 -13.0028 14.2029 1.4 18.376 -87.1008 45.3946
1207 -12.2528 14.2029 1.4 17.6266 -86.6809 -74.5985
1208 -11.5028 14.2029 1.4 16.8773 -74.5501 -143.727
1209 -10.7528 14.2029 1.4 16.128 -92.3656 -17.9409
1210 -10.0028 14.2029 1.4 15.3787 -72.9574 -51.1702
1211 -9.25282 14.2029 1.4 14.6296 -70.685 -92.8569
1212 -8.50282 14.2029 1.4 13.8805 -250 0
1213 -7.75282 14.2029 1.4 13.1316 -250 0
1214 -7.00282 14.2029 1.4 12.3827 -80.0015 30.7756
1215 -6.25282 14.2029 1.4 11.634 -74.1039 96.0714
1216 -5.50282 14.2029 1.4 10.8855 -62.1648 79.8314
1217 -4.75282 14.2029 1.4 10.1373 -63.2008 122.067
1218 -4.00282 14.2029 1.4 9.38926 -65.4038 83.7137
1219 -3.25282 14.2029 1.4 8.6416 -63.9259 22.9475
1220 -2.50282 14.2029 1.4 7.89439 -81.8809 95.8497
1221 -1.75282 14.2029 1.4 7.14776 -73.262 -65.8153
1222 -1.00282 14.2029 1.4 6.40193 -250 0
1223 -0.25282 14.2029 1.4 5.65719 -250 0
1224 0.49718 14.2029 1.4 4.91405 -75.8448 -123.158
1225 1.24718 14.2029 1.4 4.17336 -63.735 155.91
1226 1.99718 14.2029 1.4 3.43673 -68.7351 120.177
1227 2.74718 14.2029 1.4 2.70743 -63.5105 -136.286
1228 3.49718 14.2029 1.4 1.99356 -68.4198 105.386
1229 4.24718 14.2029 1.4 1.32038 -43.6343 160.521
1230 4.99718 14.2029 1.4 0.798445 -93.7529 119.213
1231 5.74718 14.2029 1.4 0.810323 -35.3534 111.467
1232 6.49718 14.2029 1.4 1.34191 -43.2024 101.694
1233 7.24718 14.2029 1.4 2.01738 -52.0713 -50.299
1234 7.99718 14.2029 1.4 2.73202 -55.3161 97.0171
1235 8.74718 14.2029 1.4 3.46166 -61.7789 -25.8324
1236 9.49718 14.2029 1.4 4.19847 -62.2283 40.4089
1237 10.2472 14.2029 1.4 4.93926 -66.408 -36.3153
1238 10.9972 14.2029 1.4 5.68246 -79.4941 -100.135
1239 11.7472 14.2029 1.4 6.42725 -70.519 -2.35315
1240 12.4972 14.2029 1.4 7.17312 -65.9047 -14.7209
1241 13.2472 14.2029 1.4 7.91977 -65.3701 144.509
1242 13.9972 14.2029 1.4 8.667 -62.6617 -57.5325
1243 14.7472 14.2029 1.4 9.41467 -63.6312 17.8582
1244 15.4972 14.2029 1.4 10.1627 -71.4677 20.0342
1245 16.2472 14.2029 1.4 10.911 -66.8384 27.4001
1246 16.9972 14.2029 1.4 11.6595 -90.0745 65.7529
1247 17.7472 14.2029 1.4 12.4082 -87.4579 83.6147
1248 18.4972 14.2029 1.4 13.157 -82.9107 -72.3695
1249 19.2472 14.2029 1.4 13.906 -68.1504 -44.6218
1250 19.9972 14.2029 1.4 14.655 -73.7758 93.3817
1251 20.7472 14.2029 1.4 15.4042 -77.8117 78.4682
1252 21.4972 14.2029 1.4 16.1534 -90.5236 107.722
1253 22.2472 14.2029 1.4 16.9027 -93.9295 43.6598
1254 22.9972 14.2029 1.4 17.6521 -93.9946 4.38441
1255 23.7472 14.2029 1.4 18.4015 -88.0511 -51.1554
1256 24.4972 14.2029 1.4 19.151 -88.5388 -159.543
1257 25.2472 14.2029 1.4 19.9005 -85.6995 80.2436
1258 25.9972 14.2029 1.4 20.65 -88.2403 110.892
1259 26.7472 14.2029 1.4 21.3996 -250 0
1260 27.4972 14.2029 1.4 22.1492 -250 0
1261 28.2472 14.2029 1.4 22.8988 -250 0
1262 28.9972 14.2029 1.4 23.6484 -250 0
1263 29.7472 14.2029 1.4 24.3981 -250 0
1264 30.4972 14.2029 1.4 25.1478 -250 0
1265 -28.0028 14.9529 1.4 33.3623 -250 0
1266 -27.2528 14.9529 1.4 32.6123 -250 0
1267 -26.5028 14.9529 1.4 31.8623 -250 0
1268 -25.7528 14.9529 1.4 31.1123 -250 0
1269 -25.0028 14.9529 1.4 30.3623 -109.823 -129.768
1270 -24.2528 14.9529 1.4 29.6123 -97.0757 -63.6425
1271 -23.5028 14.9529 1.4 28.8623 -96.6677 -145.062
1272 -22.7528 14.9529 1.4 28.1123 -91.403 140.778
1273 -22.0028 14.9529 1.4 27.3623 -76.1209 95.4031
1274 -21.2528 14.9529 1.4 26.6123 -250 0
1275 -20.5028 14.9529 1.4 25.8623 -250 0
1276 -19.7528 14.9529 1.4 25.1123 -250 0
1277 -19.0028 14.9529 1.4 24.3623 -250 0
1278 -18.2528 14.9529 1.4 23.6123 -250 0
1279 -17.5028 14.9529 1.4 22.8623 -250 0
1280 -16.7528 14.9529 1.4 22.1123 -250 0
1281 -16.0028 14.9529 1.4 21.3623 -250 0
1282 -15.2528 14.9529 1.4 20.6123 -250 0
1283 -14.5028 14.9529 1.4 19.8623 -250 0
1284 -13.7528 14.9529 1.4 19.1123 -103.358 -46.3592
1285 -13.0028 14.9529 1.4 18.3623 -98.3014 80.9118
1286 -12.2528 14.9529 1.4 17.6123 -94.1792 99.9133
1287 -11.5028 14.9529 1.4 16.8623 -97.819 126.477
1288 -10.7528 14.9529 1.4 16.1123 -99.425 -131.435
1289 -10.0028 14.9529 1.4 15.3623 -64.8128 138.019
1290 -9.25282 14.9529 1.4 14.6123 -64.4357 -165.456
1291 -8.50282 14.9529 1.4 13.8623 -64.0356 -108.844
1292 -7.75282 14.9529 1.4 13.1123 -63.6034 -52.1018
1293 -7.00282 14.9529 1.4 12.3623 -81.1677 -54.0617
1294 -6.25282 14.9529 1.4 11.6123 -67.1947 -143.454
1295 -5.50282 14.9529 1.4 10.8623 -62.714 -101.482
1296 -4.75282 14.9529 1.4 10.1123 -65.5743 -139.386
1297 -4.00282 14.9529 1.4 9.36234 -85.2439 -84.7112
1298 -3.25282 14.9529 1.4 8.61235 -50.9602 24.7231
1299 -2.50282 14.9529 1.4 7.86236 -53.9404 55.0898
1300 -1.75282 14.9529 1.4 7.11237 -55.4024 151.988
1301 -1.00282 14.9529 1.4 6.36238 -50.0839 -161.936
1302 -0.25282 14.9529 1.4 5.61239 -50.7499 -126.591
1303 0.49718 14.9529 1.4 4.86241 -50.2164 0.0618999
1304 1.24718 14.9529 1.4 4.11244 -43.6107 45.6405
1305 1.99718 14.9529 1.4 3.36248 -42.9423 79.1397
1306 2.74718 14.9529 1.4 2.61254 -44.9899 160.189
1307 3.49718 14.9529 1.4 1.86266 -62.9137 156.149
1308 4.24718 14.9529 1.4 1.11293 -250 0
1309 4.99718 14.9529 1.4 0.364298 -250 0
1310 5.74718 14.9529 1.4 0.389642 -250 0
1311 6.49718 14.9529 1.4 1.13839 -250 0
1312 7.24718 14.9529 1.4 1.88813 -39.0064 154.173
1313 7.99718 14.9529 1.4 2.63802 -51.4071 48.2075
1314 8.74718 14.9529 1.4 3.38796 -47.3735 -18.1528
1315 9.49718 14.9529 1.4 4.13792 -49.1274 -30.2309
1316 10.2472 14.9529 1.4 4.88789 -69.1884 167.613
1317 10.9972 14.9529 1.4 5.63787 -55.9447 146.498
1318 11.7472 14.9529 1.4 6.38785 -64.2309 74.3958
1319 12.4972 14.9529 1.4 7.13784 -57.4087 -10.071
1320 13.2472 14.9529 1.4 7.88783 -56.8454 -20.7321
1321 13.9972 14.9529 1.4 8.63782 -57.88 -142.188
1322 14.7472 14.9529 1.4 9.38782 -62.8956 175.834
1323 15.4972 14.9529 1.4 10.1378 -63.4684 67.5928
1324 16.2472 14.9529 1.4 10.8878 -58.8654 34.6326
1325 16.9972 14.9529 1.4 11.6378 -62.7012 14.2372
1326 17.7472 14.9529 1.4 12.3878 -250 0
1327 18.4972 14.9529 1.4 13.1378 -250 0
1328 19.2472 14.9529 1.4 13.8878 -250 0
1329 19.9972 14.9529 1.4 14.6378 -250 0
1330 20.7472 14.9529 1.4 15.3878 -250 0
1331 21.4972 14.9529 1.4 16.1378 -250 0
1332 22.2472 14.9529 1.4 16.8878 -250 0
1333 22.9972 14.9529 1.4 17.6378 -250 0
1334 23.7472 14.9529 1.4 18.3878 -250 0
1335 24.4972 14.9529 1.4 19.1378 -250 0
1336 25.2472 14.9529 1.4 19.8878 -250 0
1337 25.9972 14.9529 1.4 20.6378 -250 0
1338 26.7472 14.9529 1.4 21.3878 -250 0
1339 27.4972 14.9529 1.4 22.1378 -250 0
1340 28.2472 14.9529 1.4 22.8878 -250 0
1341 28.9972 14.9529 1.4 23.6378 -250 0
1342 29.7472 14.9529 1.4 24.3878 -250 0
1343 30.4972 14.9529 1.4 25.1378 -250 0
1344 -28.0028 15.7029 1.4 33.3716 -250 0
1345 -27.2528 15.7029 1.4 32.6218 -250 0
1346 -26.5028 15.7029 1.4 31.872 -250 0
1347 -25.7528 15.7029 1.4 31.1223 -250 0
1348 -25.0028 15.7029 1.4 30.3725 -88.4061 107.658
1349 -24.2528 15.7029 1.4 29.6228 -250 0
1350 -23.5028 15.7029 1.4 28.873 -250 0
1351 -22.7528 15.7029 1.4 28.1233 -250 0
1352 -22.0028 15.7029 1.4 27.3736 -250 0
1353 -21.2528 15.7029 1.4 26.6239 -250 0
1354 -20.5028 15.7029 1.4 25.8743 -250 0
1355 -19.7528 15.7029 1.4 25.1246 -250 0
1356 -19.0028 15.7029 1.4 24.375 -250 0
1357 -18.2528 15.7029 1.4 23.6254 -250 0
1358 -17.5028 15.7029 1.4 22.8759 -250 0
1359 -16.7528 15.7029 1.4 22.1263 -250 0
1360 -16.0028 15.7029 1.4 21.3768 -250 0
1361 -15.2528 15.7029 1.4 20.6273 -250 0
1362 -14.5028 15.7029 1.4 19.8779 -250 0
1363 -13.7528 15.7029 1.4 19.1285 -101.652 140.721
1364 -13.0028 15.7029 1.4 18.3792 -101.335 -104.266
1365 -12.2528 15.7029 1.4 17.6299 -94.7183 -81.9602
1366 -11.5028 15.7029 1.4 16.8807 -93.6897 -73.2922
1367 -10.7528 15.7029 1.4 16.1315 -75.6403 -105.056
1368 -10.0028 15.7029 1.4 15.3825 -63.8319 86.0723
1369 -9.25282 15.7029 1.4 14.6335 -63.6487 139.542
1370 -8.50282 15.7029 1.4 13.8847 -63.5367 -165.889
1371 -7.75282 15.7029 1.4 13.1359 -64.262 -68.6971
1372 -7.00282 15.7029 1.4 12.3874 -65.6773 24.6901
1373 -6.25282 15.7029 1.4 11.639 -64.6794 43.0348
1374 -5.50282 15.7029 1.4 10.8908 -65.4676 -10.1897
1375 -4.75282 15.7029 1.4 10.143 -80.1942 112.821
1376 -4.00282 15.7029 1.4 9.3954 -250 0
1377 -3.25282 15.7029 1.4 8.64828 -51.8957 -67.3035
1378 -2.50282 15.7029 1.4 7.9017 -55.1863 -37.2209
1379 -1.75282 15.7029 1.4 7.15583 -59.4141 103.072
1380 -1.00282 15.7029 1.4 6.41093 -50.8602 118.699
1381 -0.25282 15.7029 1.4 5.66738 -48.4759 130.06
1382 0.49718 15.7029 1.4 4.92578 -54.9339 -172.915
1383 1.24718 15.7029 1.4 4.18717 -51.2236 -113.329
1384 1.99718 15.7029 1.4 3.45347 -48.2964 -125.826
1385 2.74718 15.7029 1.4 2.72866 -45.2992 150.255
1386 3.49718 15.7029 1.4 2.0223 -63.6373 152.365
1387 4.24718 15.7029 1.4 1.36338 -250 0
1388 4.99718 15.7029 1.4 0.867704 -250 0
1389 5.74718 15.7029 1.4 0.878646 -250 0
1390 6.49718 15.7029 1.4 1.38424 -250 0
1391 7.24718 15.7029 1.4 2.04578 -40.8928 68.561
1392 7.99718 15.7029 1.4 2.75306 -41.2388 112.592
1393 8.74718 15.7029 1.4 3.47828 -44.5891 -173.686
1394 9.49718 15.7029 1.4 4.21219 -49.9467 92.4476
1395 10.2472 15.7029 1.4 4.95093 -53.9551 47.7066
1396 10.9972 15.7029 1.4 5.69261 -52.8755 5.00781
1397 11.7472 15.7029 1.4 6.43622 -55.7466 -62.4376
1398 12.4972 15.7029 1.4 7.18116 -52.7829 -110.375
1399 13.2472 15.7029 1.4 7.92705 -53.8516 -137.328
1400 13.9972 15.7029 1.4 8.67365 -58.5441 146.11
1401 14.7472 15.7029 1.4 9.42079 -59.8732 94.9834
1402 15.4972 15.7029 1.4 10.1684 -60.2789 0.353417
1403 16.2472 15.7029 1.4 10.9163 -57.2244 -31.4752
1404 16.9972 15.7029 1.4 11.6644 -60.715 -54.491
1405 17.7472 15.7029 1.4 12.4128 -250 0
1406 18.4972 15.7029 1.4 13.1614 -250 0
1407 19.2472 15.7029 1.4 13.9101 -250 0
1408 19.9972 15.7029 1.4 14.659 -250 0
1409 20.7472 15.7029 1.4 15.4079 -250 0
1410 21.4972 15.7029 1.4 16.157 -250 0
1411 22.2472 15.7029 1.4 16.9061 -250 0
1412 22.9972 15.7029 1.4 17.6554 -250 0
1413 23.7472 15.7029 1.4 18.4046 -250 0
1414 24.4972 15.7029 1.4 19.154 -100.619 61.9932
1415 25.2472 15.7029 1.4 19.9034 -250 0
1416 25.9972 15.7029 1.4 20.6528 -250 0
1417 26.7472 15.7029 1.4 21.4023 -250 0
1418 27.4972 15.7029 1.4 22.1518 -250 0
1419 28.2472 15.7029 1.4 22.9013 -250 0
1420 28.9972 15.7029 1.4 23.6509 -250 0
1421 29.7472 15.7029 1.4 24.4005 -250 0
1422 30.4972 15.7029 1.4 25.1501 -250 0
1423 -28.0028 16.4529 1.4 33.3977 -250 0
1424 -27.2528 16.4529 1.4 32.6485 -250 0
1425 -26.5028 16.4529 1.4 31.8994 -85.6297 -163.842
1426 -25.7528 16.4529 1.4 31.1503 -85.5936 2.10377
1427 -25.0028 16.4529 1.4 30.4012 -85.5273 -117.766
1428 -24.2528 16.4529 1.4 29.6522 -250 0
1429 -23.5028 16.4529 1.4 28.9032 -250 0
1430 -22.7528 16.4529 1.4 28.1543 -250 0
1431 -22.0028 16.4529 1.4 27.4055 -250 0
1432 -21.2528 16.4529 1.4 26.6567 -250 0
1433 -20.5028 16.4529 1.4 25.908 -100.205 102.635
1434 -19.7528 16.4529 1.4 25.1593 -114.007 70.4254
1435 -19.0028 16.4529 1.4 24.4108 -250 0
1436 -18.2528 16.4529 1.4 23.6623 -250 0
1437 -17.5028 16.4529 1.4 22.914 -250 0
1438 -16.7528 16.4529 1.4 22.1657 -250 0
1439 -16.0028 16.4529 1.4 21.4176 -250 0
1440 -15.2528 16.4529 1.4 20.6696 -250 0
1441 -14.5028 16.4529 1.4 19.9218 -250 0
1442 -13.7528 16.4529 1.4 19.1741 -104.927 92.1421
1443 -13.0028 16.4529 1.4 18.4266 -102.979 -156.863
1444 -12.2528 16.4529 1.4 17.6793 -101.808 -111.454
1445 -11.5028 16.4529 1.4 16.9323 -76.6668 -8.01005
1446 -10.7528 16.4529 1.4 16.1855 -113.39 -39.7402
1447 -10.0028 16.4529 1.4 15.4391 -60.2738 -51.5175
1448 -9.25282 16.4529 1.4 14.693 -63.2357 -2.32004
1449 -8.50282 16.4529 1.4 13.9474 -66.7855 89.482
1450 -7.75282 16.4529 1.4 13.2022 -64.912 128.816
1451 -7.00282 16.4529 1.4 12.4576 -66.4925 173.74
1452 -6.25282 16.4529 1.4 11.7137 -65.802 115.639
1453 -5.50282 16.4529 1.4 10.9707 -79.6731 -45.5867
1454 -4.75282 16.4529 1.4 10.2286 -88.4163 -14.7697
1455 -4.00282 16.4529 1.4 9.48782 -250 0
1456 -3.25282 16.4529 1.4 8.7486 -51.9349 30.7128
1457 -2.50282 16.4529 1.4 8.01137 -52.9501 10.7543
1458 -1.75282 16.4529 1.4 7.27675 -53.2114 -20.9513
1459 -1.00282 16.4529 1.4 6.54563 -53.6057 -68.04
1460 -0.25282 16.4529 1.4 5.81931 -60.6517 -124.373
1461 0.49718 16.4529 1.4 5.09985 -54.7991 -1.74421
1462 1.24718 16.4529 1.4 4.39062 -45.767 -89.7452
1463 1.99718 16.4529 1.4 3.69752 -45.3356 -88.2489
1464 2.74718 16.4529 1.4 3.03163 -43.6629 -24.1905
1465 3.49718 16.4529 1.4 2.41555 -64.3109 140.59
1466 4.24718 16.4529 1.4 1.89842 -250 0
1467 4.99718 16.4529 1.4 1.58054 -250 0
1468 5.74718 16.4529 1.4 1.58657 -250 0
1469 6.49718 16.4529 1.4 1.91346 -250 0
1470 7.24718 16.4529 1.4 2.43525 -45.3425 23.0022
1471 7.99718 16.4529 1.4 3.05361 -45.0442 -82.1781
1472 8.74718 16.4529 1.4 3.72071 -45.1721 -150.284
1473 9.49718 16.4529 1.4 4.41449 -46.0247 -148.319
1474 10.2472 16.4529 1.4 5.12415 -52.127 -74.2056
1475 10.9972 16.4529 1.4 5.84388 -60.3635 133.385
1476 11.7472 16.4529 1.4 6.57039 -57.7853 -37.5338
1477 12.4972 16.4529 1.4 7.30166 -51.6761 -28.2308
1478 13.2472 16.4529 1.4 8.03637 -51.56 -31.6216
1479 13.9972 16.4529 1.4 8.77368 -53.5786 -91.5269
1480 14.7472 16.4529 1.4 9.51297 -63.7011 -150.198
1481 15.4972 16.4529 1.4 10.2538 -55.8416 -176.392
1482 16.2472 16.4529 1.4 10.9959 -55.6056 144.346
1483 16.9972 16.4529 1.4 11.739 -58.3866 122.424
1484 17.7472 16.4529 1.4 12.4829 -250 0
1485 18.4972 16.4529 1.4 13.2275 -250 0
1486 19.2472 16.4529 1.4 13.9727 -250 0
1487 19.9972 16.4529 1.4 14.7184 -250 0
1488 20.7472 16.4529 1.4 15.4645 -250 0
1489 21.4972 16.4529 1.4 16.2109 -250 0
1490 22.2472 16.4529 1.4 16.9577 -250 0
1491 22.9972 16.4529 1.4 17.7047 -111.044 25.3365
1492 23.7472 16.4529 1.4 18.452 -104.324 62.8226
1493 24.4972 16.4529 1.4 19.1995 -250 0
1494 25.2472 16.4529 1.4 19.9472 -102.324 162.503
1495 25.9972 16.4529 1.4 20.695 -250 0
1496 26.7472 16.4529 1.4 21.443 -250 0
1497 27.4972 16.4529 1.4 22.1911 -250 0
1498 28.2472 16.4529 1.4 22.9394 -93.8171 175.557
1499 28.9972 16.4529 1.4 23.6878 -250 0
1500 29.7472 16.4529 1.4 24.4362 -250 0
1501 30.4972 16.4529 1.4 25.1848 -250 0
1502 -28.0028 17.2029 1.4 33.4407 -250 0
1503 -27.2528 17.2029 1.4 32.6925 -85.0511 117.486
1504 -26.5028 17.2029 1.4 31.9443 -79.8784 -37.2379
1505 -25.7528 17.2029 1.4 31.1963 -99.6796 -74.0327
1506 -25.0028 17.2029 1.4 30.4484 -93.0937 -42.8112
1507 -24.2528 17.2029 1.4 29.7006 -104.39 7.84717
1508 -23.5028 17.2029 1.4 28.9528 -250 0
1509 -22.7528 17.2029 1.4 28.2053 -250 0
1510 -22.0028 17.2029 1.4 27.4578 -250 0
1511 -21.2528 17.2029 1.4 26.7105 -107.985 -69.6545
1512 -20.5028 17.2029 1.4 25.9633 -96.2997 0.966875
1513 -19.7528 17.2029 1.4 25.2163 -106.573 178.873
1514 -19.0028 17.2029 1.4 24.4695 -97.2109 -164.701
1515 -18.2528 17.2029 1.4 23.7229 -104.963 -1.90014
1516 -17.5028 17.2029 1.4 22.9765 -108.12 -133.375
1517 -16.7528 17.2029 1.4 22.2304 -250 0
1518 -16.0028 17.2029 1.4 21.4845 -250 0
1519 -15.2528 17.2029 1.4 20.7389 -250 0
1520 -14.5028 17.2029 1.4 19.9937 -250 0
1521 -13.7528 17.2029 1.4 19.2488 -92.3209 -160.463
1522 -13.0028 17.2029 1.4 18.5043 -94.1104 43.1364
1523 -12.2528 17.2029 1.4 17.7603 -77.4125 109.837
1524 -11.5028 17.2029 1.4 17.0168 -69.7079 137.774
1525 -10.7528 17.2029 1.4 16.274 -66.92 -141.29
1526 -10.0028 17.2029 1.4 15.5318 -71.363 -38.3922
1527 -9.25282 17.2029 1.4 14.7904 -63.7552 -167.632
1528 -8.50282 17.2029 1.4 14.0499 -75.4698 168.095
1529 -7.75282 17.2029 1.4 13.3105 -77.2709 -109.005
1530 -7.00282 17.2029 1.4 12.5723 -66.4035 -122.031
1531 -6.25282 17.2029 1.4 11.8356 -250 0
1532 -5.50282 17.2029 1.4 11.1007 -84.2637 156.106
1533 -4.75282 17.2029 1.4 10.368 -250 0
1534 -4.00282 17.2029 1.4 9.63789 -250 0
1535 -3.25282 17.2029 1.4 8.91112 -58.4327 -166.937
1536 -2.50282 17.2029 1.4 8.18854 -68.5249 -44.8502
1537 -1.75282 17.2029 1.4 7.47137 -58.5576 -136.646
1538 -1.00282 17.2029 1.4 6.76132 -50.9169 100.318
1539 -0.25282 17.2029 1.4 6.0609 -52.2371 22.5356
1540 0.49718 17.2029 1.4 5.37389 -49.0877 26.3618
1541 1.24718 17.2029 1.4 4.70614 -40.6484 114.573
1542 1.99718 17.2029 1.4 4.06717 -56.2517 43.3399
1543 2.74718 17.2029 1.4 3.47289 -44.0156 -148.11
1544 3.49718 17.2029 1.4 2.95044 -250 0
1545 4.24718 17.2029 1.4 2.54444 -250 0
1546 4.99718 17.2029 1.4 2.31696 -250 0
1547 5.74718 17.2029 1.4 2.32108 -250 0
1548 6.49718 17.2029 1.4 2.55568 -250 0
1549 7.24718 17.2029 1.4 2.96659 -48.2992 -66.8818
1550 7.99718 17.2029 1.4 3.4921 -53.0518 147.588
1551 8.74718 17.2029 1.4 4.08826 -51.4605 -88.2644
1552 9.49718 17.2029 1.4 4.72842 -48.9858 49.8435
1553 10.2472 17.2029 1.4 5.39695 -54.1817 -92.6541
1554 10.9972 17.2029 1.4 6.0845 -51.3697 -80.7619
1555 11.7472 17.2029 1.4 6.7853 -49.7117 52.9931
1556 12.4972 17.2029 1.4 7.49562 -53.3983 110.88
1557 13.2472 17.2029 1.4 8.21301 -61.3496 72.0218
1558 13.9972 17.2029 1.4 8.93575 -59.7221 50.1641
1559 14.7472 17.2029 1.4 9.66265 -59.6201 85.2597
1560 15.4972 17.2029 1.4 10.3928 -57.7413 130.77
1561 16.2472 17.2029 1.4 11.1256 -64.2362 130.229
1562 16.9972 17.2029 1.4 11.8606 -63.0128 169.668
1563 17.7472 17.2029 1.4 12.5973 -250 0
1564 18.4972 17.2029 1.4 13.3356 -250 0
1565 19.2472 17.2029 1.4 14.075 -250 0
1566 19.9972 17.2029 1.4 14.8155 -250 0
1567 20.7472 17.2029 1.4 15.557 -250 0
1568 21.4972 17.2029 1.4 16.2992 -89.0283 48.0461
1569 22.2472 17.2029 1.4 17.0421 -111.328 -92.5166
1570 22.9972 17.2029 1.4 17.7856 -96.9964 -156.971
1571 23.7472 17.2029 1.4 18.5296 -106.891 42.1046
1572 24.4972 17.2029 1.4 19.2741 -250 0
1573 25.2472 17.2029 1.4 20.019 -108.776 -81.6042
1574 25.9972 17.2029 1.4 20.7642 -101.451 -62.4979
1575 26.7472 17.2029 1.4 21.5098 -250 0
1576 27.4972 17.2029 1.4 22.2557 -94.5828 66.1425
1577 28.2472 17.2029 1.4 23.0019 -97.2007 -146.222
1578 28.9972 17.2029 1.4 23.7483 -250 0
1579 29.7472 17.2029 1.4 24.4949 -250 0
1580 30.4972 17.2029 1.4 25.2417 -250 0
1581 -28.0028 17.9529 1.4 33.5003 -75.8579 71.8114
1582 -27.2528 17.9529 1.4 32.7535 -96.1225 149.73
1583 -26.5028 17.9529 1.4 32.0068 -106.899 158.483
1584 -25.7528 17.9529 1.4 31.2603 -250 0
1585 -25.0028 17.9529 1.4 30.5139 -250 0
1586 -24.2528 17.9529 1.4 29.7677 -106.204 161.767
1587 -23.5028 17.9529 1.4 29.0218 -91.7128 -95.8864
1588 -22.7528 17.9529 1.4 28.276 -90.0616 -137.488
1589 -22.0028 17.9529 1.4 27.5304 -101.312 -112.506
1590 -21.2528 17.9529 1.4 26.7852 -108.409 107.753
1591 -20.5028 17.9529 1.4 26.0401 -250 0
1592 -19.7528 17.9529 1.4 25.2954 -112.708 72.6733
1593 -19.0028 17.9529 1.4 24.551 -106.277 53.1909
1594 -18.2528 17.9529 1.4 23.807 -95.9644 -105.953
1595 -17.5028 17.9529 1.4 23.0633 -93.3807 -96.466
1596 -16.7528 17.9529 1.4 22.32 -250 0
1597 -16.0028 17.9529 1.4 21.5773 -250 0
1598 -15.2528 17.9529 1.4 20.835 -250 0
1599 -14.5028 17.9529 1.4 20.0933 -250 0
1600 -13.7528 17.9529 1.4 19.3523 -89.5004 147.352
1601 -13.0028 17.9529 1.4 18.612 -67.4114 -130.374
1602 -12.2528 17.9529 1.4 17.8724 -67.4936 -19.2449
1603 -11.5028 17.9529 1.4 17.1338 -77.0738 57.2085
1604 -10.7528 17.9529 1.4 16.3963 -80.6393 90.6767
1605 -10.0028 17.9529 1.4 15.6599 -67.6838 47.6506
1606 -9.25282 17.9529 1.4 14.9248 -69.5576 70.3034
1607 -8.50282 17.9529 1.4 14.1914 -64.2871 42.5202
1608 -7.75282 17.9529 1.4 13.4597 -63.629 -0.70254
1609 -7.00282 17.9529 1.4 12.7302 -250 0
1610 -6.25282 17.9529 1.4 12.0032 -250 0
1611 -5.50282 17.9529 1.4 11.2792 -250 0
1612 -4.75282 17.9529 1.4 10.5589 -250 0
1613 -4.00282 17.9529 1.4 9.84298 -250 0
1614 -3.25282 17.9529 1.4 9.13254 -49.5086 -33.601
1615 -2.50282 17.9529 1.4 8.42896 -51.2487 -124.638
1616 -1.75282 17.9529 1.4 7.73411 -79.3935 -43.9785
1617 -1.00282 17.9529 1.4 7.05058 -54.6025 -22.9795
1618 -0.25282 17.9529 1.4 6.38199 -51.2175 -167.538
1619 0.49718 17.9529 1.4 5.73357 -51.3966 -107.02
1620 1.24718 17.9529 1.4 5.11302 -47.8736 72.1468
1621 1.99718 17.9529 1.4 4.53178 -55.507 -70.6722
1622 2.74718 17.9529 1.4 4.00702 -46.0683 157.701
1623 3.49718 17.9529 1.4 3.56375 -250 0
1624 4.24718 17.9529 1.4 3.23564 -250 0
1625 4.99718 17.9529 1.4 3.05998 -250 0
1626 5.74718 17.9529 1.4 3.06311 -250 0
1627 6.49718 17.9529 1.4 3.24449 -250 0
1628 7.24718 17.9529 1.4 3.57713 -48.7539 26.22
1629 7.99718 17.9529 1.4 4.02367 -52.0348 24.0515
1630 8.74718 17.9529 1.4 4.55072 -46.8406 -61.7537
1631 9.49718 17.9529 1.4 5.13353 -45.9724 26.6774
1632 10.2472 17.9529 1.4 5.75519 -49.8902 -156.624
1633 10.9972 17.9529 1.4 6.4044 -50.6096 133.308
1634 11.7472 17.9529 1.4 7.07358 -54.9435 50.1124
1635 12.4972 17.9529 1.4 7.75755 -52.3399 32.0699
1636 13.2472 17.9529 1.4 8.45273 -53.1873 120.302
1637 13.9972 17.9529 1.4 9.15657 -59.8004 -172.084
1638 14.7472 17.9529 1.4 9.86721 -60.6634 -116.118
1639 15.4972 17.9529 1.4 10.5833 -64.246 -86.3264
1640 16.2472 17.9529 1.4 11.3038 -62.4499 -125.038
1641 16.9972 17.9529 1.4 12.0279 -64.7532 11.2766
1642 17.7472 17.9529 1.4 12.7549 -250 0
1643 18.4972 17.9529 1.4 13.4845 -250 0
1644 19.2472 17.9529 1.4 14.2162 -250 0
1645 19.9972 17.9529 1.4 14.9498 -250 0
1646 20.7472 17.9529 1.4 15.6849 -250 0
1647 21.4972 17.9529 1.4 16.4213 -75.2383 141.953
1648 22.2472 17.9529 1.4 17.1589 -76.3903 96.7943
1649 22.9972 17.9529 1.4 17.8975 -106.488 116.39
1650 23.7472 17.9529 1.4 18.6371 -250 0
1651 24.4972 17.9529 1.4 19.3774 -250 0
1652 25.2472 17.9529 1.4 20.1185 -250 0
1653 25.9972 17.9529 1.4 20.8602 -250 0
1654 26.7472 17.9529 1.4 21.6025 -91.3151 -17.3662
1655 27.4972 17.9529 1.4 22.3453 -111.954 8.83502
1656 28.2472 17.9529 1.4 23.0885 -105.24 -69.9106
1657 28.9972 17.9529 1.4 23.8322 -250 0
1658 29.7472 17.9529 1.4 24.5763 -250 0
1659 30.4972 17.9529 1.4 25.3207 -250 0
1660 -28.0028 18.7029 1.4 33.5767 -250 0
1661 -27.2528 18.7029 1.4 32.8316 -250 0
1662 -26.5028 18.7029 1.4 32.0867 -250 0
1663 -25.7528 18.7029 1.4 31.3421 -250 0
1664 -25.0028 18.7029 1.4 30.5977 -250 0
1665 -24.2528 18.7029 1.4 29.8536 -105.159 99.1943
1666 -23.5028 18.7029 1.4 29.1098 -250 0
1667 -22.7528 18.7029 1.4 28.3664 -250 0
1668 -22.0028 18.7029 1.4 27.6233 -112.541 -0.0779202
1669 -21.2528 18.7029 1.4 26.8806 -88.9475 -39.8748
1670 -20.5028 18.7029 1.4 26.1383 -104.478 -73.0594
1671 -19.7528 18.7029 1.4 25.3964 -95.6244 -12.6551
1672 -19.0028 18.7029 1.4 24.6551 -106.548 -32.5942
1673 -18.2528 18.7029 1.4 23.9142 -250 0
1674 -17.5028 18.7029 1.4 23.174 -112.205 127.213
1675 -16.7528 18.7029 1.4 22.4345 -250 0
1676 -16.0028 18.7029 1.4 21.6956 -250 0
1677 -15.2528 18.7029 1.4 20.9575 -250 0
1678 -14.5028 18.7029 1.4 20.2203 -250 0
1679 -13.7528 18.7029 1.4 19.4841 -71.579 70.5735
1680 -13.0028 18.7029 1.4 18.749 -77.898 -137.99
1681 -12.2528 18.7029 1.4 18.0151 -77.5274 -84.0233
1682 -11.5028 18.7029 1.4 17.2826 -79.2552 -74.2026
1683 -10.7528 18.7029 1.4 16.5517 -79.5461 -73.3438
1684 -10.0028 18.7029 1.4 15.8225 -65.2558 -170.024
1685 -9.25282 18.7029 1.4 15.0954 -61.2692 175.757
1686 -8.50282 18.7029 1.4 14.3706 -59.755 147.732
1687 -7.75282 18.7029 1.4 13.6486 -69.3228 160.937
1688 -7.00282 18.7029 1.4 12.9297 -250 0
1689 -6.25282 18.7029 1.4 12.2146 -250 0
1690 -5.50282 18.7029 1.4 11.504 -250 0
1691 -4.75282 18.7029 1.4 10.7986 -250 0
1692 -4.00282 18.7029 1.4 10.0997 -250 0
1693 -3.25282 18.7029 1.4 9.40869 -61.1624 157.277
1694 -2.50282 18.7029 1.4 8.72741 -50.6111 85.4328
1695 -1.75282 18.7029 1.4 8.05833 -57.2112 -74.957
1696 -1.00282 18.7029 1.4 7.40478 -58.3282 70.9623
1697 -0.25282 18.7029 1.4 6.77126 -77.2152 178.556
1698 0.49718 18.7029 1.4 6.16393 -54.2025 -139.648
1699 1.24718 18.7029 1.4 5.59135 -54.3721 81.8214
1700 1.99718 18.7029 1.4 5.0653 -46.4818 -62.1708
1701 2.74718 18.7029 1.4 4.60178 -51.5449 143.496
1702 3.49718 18.7029 1.4 4.22143 -250 0
1703 4.24718 18.7029 1.4 3.94837 -250 0
1704 4.99718 18.7029 1.4 3.80575 -250 0
1705 5.74718 18.7029 1.4 3.80826 -250 0
1706 6.49718 18.7029 1.4 3.95562 -250 0
1707 7.24718 18.7029 1.4 4.23273 -63.2517 -99.7919
1708 7.99718 18.7029 1.4 4.61629 -54.6248 107.971
1709 8.74718 18.7029 1.4 5.08225 -46.6632 -172.333
1710 9.49718 18.7029 1.4 5.61011 -52.9279 27.389
1711 10.2472 18.7029 1.4 6.18405 -47.9404 129.051
1712 10.9972 18.7029 1.4 6.79239 -59.0954 11.1634
1713 11.7472 18.7029 1.4 7.42669 -53.8865 -32.1057
1714 12.4972 18.7029 1.4 8.08083 -59.3524 -97.4779
1715 13.2472 18.7029 1.4 8.75037 -62.8943 162.468
1716 13.9972 18.7029 1.4 9.43202 -67.0655 -51.9741
1717 14.7472 18.7029 1.4 10.1233 -56.2914 -99.5949
1718 15.4972 18.7029 1.4 10.8225 -55.8775 -62.4331
1719 16.2472 18.7029 1.4 11.528 -61.2908 -42.8531
1720 16.9972 18.7029 1.4 12.2388 -65.1724 61.4013
1721 17.7472 18.7029 1.4 12.9541 -250 0
1722 18.4972 18.7029 1.4 13.6731 -250 0
1723 19.2472 18.7029 1.4 14.3952 -250 0
1724 19.9972 18.7029 1.4 15.12 -250 0
1725 20.7472 18.7029 1.4 15.8472 -250 0
1726 21.4972 18.7029 1.4 16.5765 -100.797 52.0904
1727 22.2472 18.7029 1.4 17.3075 -78.3748 -52.6448
1728 22.9972 18.7029 1.4 18.04 -75.9948 -88.1409
1729 23.7472 18.7029 1.4 18.774 -116.501 -64.1467
1730 24.4972 18.7029 1.4 19.5091 -118.496 14.1031
1731 25.2472 18.7029 1.4 20.2454 -114.48 15.1526
1732 25.9972 18.7029 1.4 20.9826 -92.925 -150.332
1733 26.7472 18.7029 1.4 21.7207 -111.518 -152.841
1734 27.4972 18.7029 1.4 22.4596 -103.231 141.479
1735 28.2472 18.7029 1.4 23.1992 -117.623 66.1371
1736 28.9972 18.7029 1.4 23.9394 -109.992 -128.962
1737 29.7472 18.7029 1.4 24.6802 -109.983 -55.8931
1738 30.4972 18.7029 1.4 25.4216 -250 0
1739 -28.0028 19.4529 1.4 33.6695 -250 0
1740 -27.2528 19.4529 1.4 32.9265 -250 0
1741 -26.5028 19.4529 1.4 32.1839 -250 0
1742 -25.7528 19.4529 1.4 31.4415 -250 0
1743 -25.0028 19.4529 1.4 30.6996 -250 0
1744 -24.2528 19.4529 1.4 29.958 -250 0
1745 -23.5028 19.4529 1.4 29.2169 -250 0
1746 -22.7528 19.4529 1.4 28.4763 -250 0
1747 -22.0028 19.4529 1.4 27.7361 -250 0
1748 -21.2528 19.4529 1.4 26.9965 -250 0
1749 -20.5028 19.4529 1.4 26.2575 -99.215 143.197
1750 -19.7528 19.4529 1.4 25.5191 -250 0
1751 -19.0028 19.4529 1.4 24.7814 -250 0
1752 -18.2528 19.4529 1.4 24.0445 -250 0
1753 -17.5028 19.4529 1.4 23.3084 -250 0
1754 -16.7528 19.4529 1.4 22.5732 -250 0
1755 -16.0028 19.4529 1.4 21.839 -250 0
1756 -15.2528 19.4529 1.4 21.106 -250 0
1757 -14.5028 19.4529 1.4 20.3742 -250 0
1758 -13.7528 19.4529 1.4 19.6437 -80.1433 78.8684
1759 -13.0028 19.4529 1.4 18.9148 -78.5872 116.175
1760 -12.2528 19.4529 1.4 18.1876 -80.0018 103.773
1761 -11.5028 19.4529 1.4 17.4623 -79.8919 116.645
1762 -10.7528 19.4529 1.4 16.7393 -78.1086 62.6682
1763 -10.0028 19.4529 1.4 16.0186 -69.5195 -34.3738
1764 -9.25282 19.4529 1.4 15.3008 -68.8217 -71.6281
1765 -8.50282 19.4529 1.4 14.5863 -70.4719 -16.0233
1766 -7.75282 19.4529 1.4 13.8755 -69.9208 -10.7635
1767 -7.00282 19.4529 1.4 13.169 -250 0
1768 -6.25282 19.4529 1.4 12.4676 -250 0
1769 -5.50282 19.4529 1.4 11.7723 -250 0
1770 -4.75282 19.4529 1.4 11.084 -250 0
1771 -4.00282 19.4529 1.4 10.4043 -250 0
1772 -3.25282 19.4529 1.4 9.73492 -57.8902 16.1261
1773 -2.50282 19.4529 1.4 9.07815 -57.2581 153.349
1774 -1.75282 19.4529 1.4 8.43694 -64.3504 117.095
1775 -1.00282 19.4529 1.4 7.81512 -60.6542 -160.555
1776 -0.25282 19.4529 1.4 7.2177 -62.9098 -85.7294
1777 0.49718 19.4529 1.4 6.65126 -48.8969 145.459
1778 1.24718 19.4529 1.4 6.12441 -66.8348 24.3642
1779 1.99718 19.4529 1.4 5.64823 -54.2378 -36.1627
1780 2.74718 19.4529 1.4 5.23656 -63.0416 164.716
1781 3.49718 19.4529 1.4 4.90568 -250 0
1782 4.24718 19.4529 1.4 4.67277 -250 0
1783 4.99718 19.4529 1.4 4.5529 -250 0
1784 5.74718 19.4529 1.4 4.555 -250 0
1785 6.49718 19.4529 1.4 4.6789 -250 0
1786 7.24718 19.4529 1.4 4.91541 -60.3016 -1.94079
1787 7.99718 19.4529 1.4 5.24932 -56.3164 99.5103
1788 8.74718 19.4529 1.4 5.66343 -55.8636 -103.065
1789 9.49718 19.4529 1.4 6.14154 -71.6342 -71.558
1790 10.2472 19.4529 1.4 6.66991 -56.0408 171.69
1791 10.9972 19.4529 1.4 7.23753 -61.2561 138.209
1792 11.7472 19.4529 1.4 7.83587 -55.6354 97.6864
1793 12.4972 19.4529 1.4 8.45843 -52.4482 171.118
1794 13.2472 19.4529 1.4 9.10022 -50.1202 80.963
1795 13.9972 19.4529 1.4 9.75747 -77.185 3.76088
1796 14.7472 19.4529 1.4 10.4272 -74.1568 103.63
1797 15.4972 19.4529 1.4 11.1073 -65.7395 122.645
1798 16.2472 19.4529 1.4 11.7958 -88.969 174.368
1799 16.9972 19.4529 1.4 12.4914 -61.0259 89.7614
1800 17.7472 19.4529 1.4 13.1929 -250 0
1801 18.4972 19.4529 1.4 13.8996 -250 0
1802 19.2472 19.4529 1.4 14.6105 -250 0
1803 19.9972 19.4529 1.4 15.3252 -250 0
1804 20.7472 19.4529 1.4 16.0431 -250 0
1805 21.4972 19.4529 1.4 16.7638 -250 0
1806 22.2472 19.4529 1.4 17.4869 -250 0
1807 22.9972 19.4529 1.4 18.2123 -78.4025 106.205
1808 23.7472 19.4529 1.4 18.9396 -78.0174 85.0285
1809 24.4972 19.4529 1.4 19.6685 -114.742 44.5386
1810 25.2472 19.4529 1.4 20.399 -92.6973 121.044
1811 25.9972 19.4529 1.4 21.1309 -111.836 89.6128
1812 26.7472 19.4529 1.4 21.864 -250 0
1813 27.4972 19.4529 1.4 22.5982 -117.002 -97.4706
1814 28.2472 19.4529 1.4 23.3334 -101.428 -149.81
1815 28.9972 19.4529 1.4 24.0695 -129.808 93.0826
1816 29.7472 19.4529 1.4 24.8064 -250 0
1817 30.4972 19.4529 1.4 25.5441 -110.596 -12.647
1818 -28.0028 20.2029 1.4 33.7788 -250 0
1819 -27.2528 20.2029 1.4 33.0383 -250 0
1820 -26.5028 20.2029 1.4 32.2982 -250 0
1821 -25.7528 20.2029 1.4 31.5585 -250 0
1822 -25.0028 20.2029 1.4 30.8194 -250 0
1823 -24.2528 20.2029 1.4 30.0808 -250 0
1824 -23.5028 20.2029 1.4 29.3428 -250 0
1825 -22.7528 20.2029 1.4 28.6054 -250 0
1826 -22.0028 20.2029 1.4 27.8686 -250 0
1827 -21.2528 20.2029 1.4 27.1326 -250 0
1828 -20.5028 20.2029 1.4 26.3974 -250 0
1829 -19.7528 20.2029 1.4 25.6631 -250 0
1830 -19.0028 20.2029 1.4 24.9297 -250 0
1831 -18.2528 20.2029 1.4 24.1972 -250 0
1832 -17.5028 20.2029 1.4 23.466 -250 0
1833 -16.7528 20.2029 1.4 22.7359 -250 0
1834 -16.0028 20.2029 1.4 22.0071 -250 0
1835 -15.2528 20.2029 1.4 21.2799 -250 0
1836 -14.5028 20.2029 1.4 20.5543 -250 0
1837 -13.7528 20.2029 1.4 19.8304 -80.7174 -49.8676
1838 -13.0028 20.2029 1.4 19.1086 -79.9397 -79.2029
1839 -12.2528 20.2029 1.4 18.3891 -79.7723 -94.1932
1840 -11.5028 20.2029 1.4 17.6721 -79.7677 -135.846
1841 -10.7528 20.2029 1.4 16.958 -78.2619 149.963
1842 -10.0028 20.2029 1.4 16.2471 -78.5199 1.6599
1843 -9.25282 20.2029 1.4 15.5398 -83.9672 174.394
1844 -8.50282 20.2029 1.4 14.8368 -74.7204 -3.99677
1845 -7.75282 20.2029 1.4 14.1386 -75.144 49.6223
1846 -7.00282 20.2029 1.4 13.4459 -250 0
1847 -6.25282 20.2029 1.4 12.7598 -250 0
1848 -5.50282 20.2029 1.4 12.0812 -250 0
1849 -4.75282 20.2029 1.4 11.4116 -250 0
1850 -4.00282 20.2029 1.4 10.7527 -250 0
1851 -3.25282 20.2029 1.4 10.1064 -57.7124 4.62117
1852 -2.50282 20.2029 1.4 9.47539 -250 0
1853 -1.75282 20.2029 1.4 8.86296 -250 0
1854 -1.00282 20.2029 1.4 8.27322 -69.4543 1.41427
1855 -0.25282 20.2029 1.4 7.71138 -250 0
1856 0.49718 20.2029 1.4 7.18397 -57.6886 37.4569
1857 1.24718 20.2029 1.4 6.69915 -55.5662 92.5502
1858 1.99718 20.2029 1.4 6.26679 -58.9311 -81.7605
1859 2.74718 20.2029 1.4 5.89846 -68.0605 -160.679
1860 3.49718 20.2029 1.4 5.60677 -250 0
1861 4.24718 20.2029 1.4 5.40416 -250 0
1862 4.99718 20.2029 1.4 5.30086 -250 0
1863 5.74718 20.2029 1.4 5.30266 -250 0
1864 6.49718 20.2029 1.4 5.40947 -250 0
1865 7.24718 20.2029 1.4 5.61528 -65.8382 -59.4347
1866 7.99718 20.2029 1.4 5.90978 -65.0997 -81.5186
1867 8.74718 20.2029 1.4 6.2805 -59.3793 -118.046
1868 9.49718 20.2029 1.4 6.71482 -58.97 49.6489
1869 10.2472 20.2029 1.4 7.20124 -54.9706 2.12926
1870 10.9972 20.2029 1.4 7.72994 -78.0742 143.689
1871 11.7472 20.2029 1.4 8.29283 -85.8852 28.134
1872 12.4972 20.2029 1.4 8.88342 -57.4154 -146.698
1873 13.2472 20.2029 1.4 9.49654 -55.5085 -24.3346
1874 13.9972 20.2029 1.4 10.1281 -69.5202 -37.3427
1875 14.7472 20.2029 1.4 10.7749 -95.4521 141.476
1876 15.4972 20.2029 1.4 11.4342 -93.5603 -2.98145
1877 16.2472 20.2029 1.4 12.1042 -91.1809 -39.8118
1878 16.9972 20.2029 1.4 12.783 -88.2707 61.0653
1879 17.7472 20.2029 1.4 13.4694 -250 0
1880 18.4972 20.2029 1.4 14.1622 -250 0
1881 19.2472 20.2029 1.4 14.8606 -250 0
1882 19.9972 20.2029 1.4 15.5638 -250 0
1883 20.7472 20.2029 1.4 16.2712 -250 0
1884 21.4972 20.2029 1.4 16.9822 -250 0
1885 22.2472 20.2029 1.4 17.6964 -250 0
1886 22.9972 20.2029 1.4 18.4135 -250 0
1887 23.7472 20.2029 1.4 19.1331 -98.1133 -2.431
1888 24.4972 20.2029 1.4 19.855 -92.6923 -2.3851
1889 25.2472 20.2029 1.4 20.5789 -112.236 -29.8041
1890 25.9972 20.2029 1.4 21.3046 -250 0
1891 26.7472 20.2029 1.4 22.0319 -250 0
1892 27.4972 20.2029 1.4 22.7607 -117.244 -119.378
1893 28.2472 20.2029 1.4 23.4908 -117.484 19.1216
1894 28.9972 20.2029 1.4 24.2221 -116.094 104.449
1895 29.7472 20.2029 1.4 24.9546 -120.83 -144.742
1896 30.4972 20.2029 1.4 25.688 -250 0
